##TITLE= W6715_5mm_240124
##JCAMP-DX= 4.24
##DATA TYPE= UV/VIS SPECTRUM
##ORIGIN=  Lambda-SPX/P Scan
##OWNER= Optiplex/OPTIPLEX-755
##DATE= 24.01.2024 17:08:29
##SPECTROMETER/DATA SYSTEM= Lambda 19 UV/Vis/NIR
##SAMPLE DESCRIPTION= 240124
##DELTAX= 0.5
##XUNITS= NANOMETERS
##YUNITS= TRANSMITTANCE
$$COMMENT= RTUNITS 0-1
##XFACTOR= 1.0
##YFACTOR= 0.01
##FIRSTX= 190
##LASTX= 2800
##NPOINTS= 5221
##FIRSTY= 0.002624
##MAXY= 0.326536
##MINY= -0.00006
##XYDATA= (XY..XY)
190 0.262374
190.5 0.19969
191 0.168662
191.5 0.151765
192 0.156396
192.5 0.111402
193 0.091378
193.5 0.079444
194 0.041193
194.5 0.037898
195 0.01835
195.5 0.016957
196 0.017942
196.5 0.009719
197 0.003866
197.5 0.013482
198 0.00318
198.5 0.009954
199 -0.002054
199.5 0.008473
200 -0.000845
200.5 0.008389
201 0.001438
201.5 0.001949
202 0.004963
202.5 -0.001299
203 0.007782
203.5 -0.005967
204 0.00743
204.5 -0.000413
205 0.004409
205.5 0.004206
206 0.003007
206.5 0.002568
207 0.002963
207.5 0.003174
208 0.000649
208.5 0.004343
209 0.00136
209.5 0.00537
210 0.00305
210.5 0.001369
211 0.003344
211.5 0.004243
212 0.00558
212.5 -0.002527
213 0.006009
213.5 -0.000573
214 0.007828
214.5 0.00208
215 0.00485
215.5 -0.000219
216 0.006137
216.5 0.002169
217 0.003148
217.5 0.002887
218 0.00025
218.5 0.003282
219 0.006918
219.5 0.005703
220 0.00153
220.5 0.006555
221 0.005817
221.5 0.004361
222 0.003829
222.5 0.002413
223 0.008486
223.5 0.003343
224 0.006675
224.5 -0.001831
225 0.008408
225.5 0.000321
226 0.005124
226.5 -0.000647
227 0.003467
227.5 0.000904
228 0.010411
228.5 0.005625
229 -0.000189
229.5 0.004086
230 0.004663
230.5 0.009508
231 0.001812
231.5 0.008152
232 0.008598
232.5 0.007747
233 0.007911
233.5 0.002214
234 0.01377
234.5 0.005451
235 0.013059
235.5 0.001451
236 0.012789
236.5 0.002792
237 0.01446
237.5 0.006161
238 0.005988
238.5 0.009381
239 0.01058
239.5 0.009321
240 0.004228
240.5 0.009158
241 0.006803
241.5 0.012364
242 0.010973
242.5 0.007419
243 0.010125
243.5 0.008265
244 0.012069
244.5 0.003988
245 0.017138
245.5 0.002054
246 0.010864
246.5 0.004551
247 0.010797
247.5 0.005187
248 0.008743
248.5 0.00702
249 0.002847
249.5 0.008098
250 0.001083
250.5 0.00977
251 0.005705
251.5 0.004367
252 0.003272
252.5 0.00787
253 0.008095
253.5 0.005758
254 0.011052
254.5 0.004974
255 0.008958
255.5 0.006065
256 0.012772
256.5 0.00401
257 0.006849
257.5 0.005216
258 0.004306
258.5 0.007662
259 0.003243
259.5 0.009235
260 0.003276
260.5 0.00634
261 0.002087
261.5 0.008186
262 0.003683
262.5 0.005702
263 0.002795
263.5 0.004394
264 0.005038
264.5 0.006004
265 0.007561
265.5 0.004215
266 0.004648
266.5 0.006185
267 0.005025
267.5 0.005671
268 0.006856
268.5 0.004836
269 0.003377
269.5 0.008773
270 0.001992
270.5 0.00929
271 0.003244
271.5 0.009066
272 -0.000912
272.5 0.009871
273 0.001002
273.5 0.007053
274 0.003626
274.5 0.004818
275 0.005999
275.5 0.00967
276 0.005371
276.5 0.002607
277 0.007165
277.5 0.004737
278 0.009281
278.5 0.005845
279 0.005235
279.5 0.006091
280 0.005236
280.5 0.007456
281 0.000427
281.5 0.012271
282 -0.000668
282.5 0.009773
283 -0.001398
283.5 0.008426
284 0.002191
284.5 0.009345
285 0.004994
285.5 0.00122
286 0.006704
286.5 0.003503
287 0.009066
287.5 0.002952
288 0.006373
288.5 0.004488
289 0.007992
289.5 0.006973
290 0.003453
290.5 0.01022
291 0.005112
291.5 0.012637
292 0.001218
292.5 0.01345
293 0.004012
293.5 0.011111
294 0.005052
294.5 0.004149
295 0.007209
295.5 0.004932
296 0.009409
296.5 0.000926
297 0.009905
297.5 0.002143
298 0.010638
298.5 0.009076
299 0.006343
299.5 0.005044
300 0.009024
300.5 0.010731
301 0.007935
301.5 0.01152
302 0.006917
302.5 0.011832
303 0.009135
303.5 0.009745
304 0.008496
304.5 0.013377
305 0.010419
305.5 0.00893
306 0.01337
306.5 0.007249
307 0.017232
307.5 0.011665
308 0.014695
308.5 0.008875
309 0.017134
309.5 0.013519
310 0.01768
310.5 0.014673
311 0.01364
311.5 0.020682
312 0.021836
312.5 0.018949
313 0.017344
313.5 0.023605
314 0.023338
314.5 0.027121
315 0.024588
315.5 0.027801
316 0.031704
316.5 0.03092
317 0.030837
317.5 0.027739
318 0.038707
318.5 0.028346
319 0.024051
319.5 0.037195
320 0.039791
320.5 0.042261
321 0.04748
321.5 0.050616
322 0.053677
322.5 0.059381
323 0.05512
323.5 0.061709
324 0.062394
324.5 0.066488
325 0.067228
325.5 0.075528
326 0.077301
326.5 0.079377
327 0.088468
327.5 0.086837
328 0.097553
328.5 0.093743
329 0.102378
329.5 0.097287
330 0.112099
330.5 0.10856
331 0.117868
331.5 0.12333
332 0.128633
332.5 0.132929
333 0.143483
333.5 0.144982
334 0.148967
334.5 0.159004
335 0.160398
335.5 0.172499
336 0.177396
336.5 0.181059
337 0.190471
337.5 0.195364
338 0.209268
338.5 0.207719
339 0.227073
339.5 0.222193
340 0.240719
340.5 0.233988
341 0.251836
341.5 0.262119
342 0.274726
342.5 0.277647
343 0.287061
343.5 0.304278
344 0.306334
344.5 0.322157
345 0.33351
345.5 0.346531
346 0.354344
346.5 0.369427
347 0.386481
347.5 0.392193
348 0.407797
348.5 0.416132
349 0.437994
349.5 0.438697
350 0.461879
350.5 0.46847
351 0.492178
351.5 0.500305
352 0.514717
352.5 0.531237
353 0.54291
353.5 0.554673
354 0.564007
354.5 0.589539
355 0.593078
355.5 0.618987
356 0.62941
356.5 0.654981
357 0.658539
357.5 0.676781
358 0.692362
358.5 0.705636
359 0.735241
359.5 0.736696
360 0.768617
360.5 0.78187
361 0.797494
361.5 0.813624
362 0.841104
362.5 0.853205
363 0.874018
363.5 0.903797
364 0.911624
364.5 0.9412
365 0.95827
365.5 0.988907
366 1.000653
366.5 1.041375
367 1.058219
367.5 1.090139
368 1.120367
368.5 1.142025
369 1.17836
369.5 1.2103
370 1.24016
370.5 1.265125
371 1.314657
371.5 1.346975
372 1.400512
372.5 1.42972
373 1.467304
373.5 1.532071
374 1.565676
374.5 1.615708
375 1.653935
375.5 1.720804
376 1.798132
376.5 1.840281
377 1.897098
377.5 1.964075
378 2.045099
378.5 2.142398
379 2.189562
379.5 2.308993
380 2.409448
380.5 2.496842
381 2.571779
381.5 2.688048
382 2.784687
382.5 2.904399
383 2.9974
383.5 3.119814
384 3.229428
384.5 3.36527
385 3.477069
385.5 3.627412
386 3.765229
386.5 3.893433
387 4.039463
387.5 4.178892
388 4.365103
388.5 4.479474
389 4.653244
389.5 4.79769
390 4.951179
390.5 5.129999
391 5.279058
391.5 5.444217
392 5.605372
392.5 5.783022
393 5.935331
393.5 6.117843
394 6.26083
394.5 6.413233
395 6.575902
395.5 6.706576
396 6.843076
396.5 6.992279
397 7.083583
397.5 7.210352
398 7.308137
398.5 7.421499
399 7.552185
399.5 7.639591
400 7.704087
400.5 7.761581
401 7.883773
401.5 7.893619
402 7.961334
402.5 8.010784
403 8.046952
403.5 8.056675
404 8.098875
404.5 8.104474
405 8.14264
405.5 8.126888
406 8.127841
406.5 8.161398
407 8.117384
407.5 8.127359
408 8.123097
408.5 8.086602
409 8.051228
409.5 8.033936
410 8.023874
410.5 7.958958
411 7.94805
411.5 7.90703
412 7.881896
412.5 7.814591
413 7.764819
413.5 7.73702
414 7.70594
414.5 7.636445
415 7.599326
415.5 7.550331
416 7.53136
416.5 7.463364
417 7.413084
417.5 7.369383
418 7.317472
418.5 7.252661
419 7.236012
419.5 7.17649
420 7.111391
420.5 7.056675
421 7.038886
421.5 6.976014
422 6.906582
422.5 6.86188
423 6.822346
423.5 6.788202
424 6.726854
424.5 6.724893
425 6.642013
425.5 6.607353
426 6.562939
426.5 6.536935
427 6.48284
427.5 6.450817
428 6.39921
428.5 6.367638
429 6.331937
429.5 6.28754
430 6.275672
430.5 6.206615
431 6.201907
431.5 6.138507
432 6.114201
432.5 6.100238
433 6.055579
433.5 6.029131
434 5.991537
434.5 5.953854
435 5.950658
435.5 5.909607
436 5.866838
436.5 5.863232
437 5.831324
437.5 5.793606
438 5.769248
438.5 5.741398
439 5.700532
439.5 5.681439
440 5.674677
440.5 5.631784
441 5.633896
441.5 5.594978
442 5.587052
442.5 5.565587
443 5.558337
443.5 5.524484
444 5.493674
444.5 5.498996
445 5.469484
445.5 5.465643
446 5.430616
446.5 5.444438
447 5.413447
447.5 5.394442
448 5.387529
448.5 5.384897
449 5.402716
449.5 5.385246
450 5.362133
450.5 5.366393
451 5.371392
451.5 5.343852
452 5.346079
452.5 5.342032
453 5.351139
453.5 5.352106
454 5.339717
454.5 5.345055
455 5.343874
455.5 5.351361
456 5.341718
456.5 5.351955
457 5.355954
457.5 5.360057
458 5.357761
458.5 5.364805
459 5.361071
459.5 5.386559
460 5.392837
460.5 5.377195
461 5.382071
461.5 5.411192
462 5.436016
462.5 5.431442
463 5.442626
463.5 5.444206
464 5.457703
464.5 5.473297
465 5.472627
465.5 5.497971
466 5.507093
466.5 5.530317
467 5.526966
467.5 5.547415
468 5.532128
468.5 5.589124
469 5.598652
469.5 5.602673
470 5.62386
470.5 5.643015
471 5.670862
471.5 5.680277
472 5.725484
472.5 5.728354
473 5.74678
473.5 5.771235
474 5.800828
474.5 5.82117
475 5.847679
475.5 5.895617
476 5.8965
476.5 5.919864
477 5.943018
477.5 5.992653
478 6.028933
478.5 6.05823
479 6.080645
479.5 6.130037
480 6.141746
480.5 6.169756
481 6.213138
481.5 6.256472
482 6.29448
482.5 6.319451
483 6.354076
483.5 6.385764
484 6.433567
484.5 6.47385
485 6.526707
485.5 6.546195
486 6.595484
486.5 6.616967
487 6.66537
487.5 6.702767
488 6.75879
488.5 6.789357
489 6.826299
489.5 6.885886
490 6.893064
490.5 6.945643
491 6.98592
491.5 7.020877
492 7.068841
492.5 7.092264
493 7.142546
493.5 7.181866
494 7.227157
494.5 7.258734
495 7.293773
495.5 7.346324
496 7.375736
496.5 7.41247
497 7.467253
497.5 7.487926
498 7.549404
498.5 7.603946
499 7.618757
499.5 7.66333
500 7.697619
500.5 7.750214
501 7.804557
501.5 7.832468
502 7.893518
502.5 7.90551
503 7.945846
503.5 7.992205
504 8.047611
504.5 8.076742
505 8.12774
505.5 8.15667
506 8.210276
506.5 8.261618
507 8.283538
507.5 8.32535
508 8.39595
508.5 8.444206
509 8.468323
509.5 8.532757
510 8.569448
510.5 8.622465
511 8.651604
511.5 8.702304
512 8.761259
512.5 8.775774
513 8.832182
513.5 8.8735
514 8.923828
514.5 8.959058
515 9.017353
515.5 9.035815
516 9.088887
516.5 9.121095
517 9.145438
517.5 9.191588
518 9.237741
518.5 9.274521
519 9.301546
519.5 9.343255
520 9.362409
520.5 9.412569
521 9.429988
521.5 9.455372
522 9.468138
522.5 9.522396
523 9.536599
523.5 9.569222
524 9.594706
524.5 9.611918
525 9.64068
525.5 9.660639
526 9.686334
526.5 9.70186
527 9.716522
527.5 9.731794
528 9.757578
528.5 9.771687
529 9.768065
529.5 9.797198
530 9.802266
530.5 9.807322
531 9.816917
531.5 9.822551
532 9.826745
532.5 9.833325
533 9.854516
533.5 9.855169
534 9.874957
534.5 9.850761
535 9.863621
535.5 9.856942
536 9.852187
536.5 9.855591
537 9.860861
537.5 9.85259
538 9.861978
538.5 9.842584
539 9.832502
539.5 9.856299
540 9.833682
540.5 9.81909
541 9.809683
541.5 9.829973
542 9.793856
542.5 9.785146
543 9.790696
543.5 9.773876
544 9.748012
544.5 9.722532
545 9.734999
545.5 9.681613
546 9.689577
546.5 9.662865
547 9.664267
547.5 9.630127
548 9.609824
548.5 9.583455
549 9.559863
549.5 9.549551
550 9.530704
550.5 9.515162
551 9.498732
551.5 9.47555
552 9.430915
552.5 9.428652
553 9.393125
553.5 9.38688
554 9.361809
554.5 9.317071
555 9.294188
555.5 9.28855
556 9.260605
556.5 9.239726
557 9.20393
557.5 9.209136
558 9.152812
558.5 9.123271
559 9.098635
559.5 9.08337
560 9.05275
560.5 9.026492
561 9.018109
561.5 8.968937
562 8.946314
562.5 8.909126
563 8.870305
563.5 8.865084
564 8.83225
564.5 8.799987
565 8.790857
565.5 8.768941
566 8.725034
566.5 8.699818
567 8.682705
567.5 8.665425
568 8.625326
568.5 8.630683
569 8.597762
569.5 8.586863
570 8.547322
570.5 8.543431
571 8.511402
571.5 8.490153
572 8.481788
572.5 8.460841
573 8.457499
573.5 8.420794
574 8.42177
574.5 8.380246
575 8.375076
575.5 8.352637
576 8.339944
576.5 8.333887
577 8.302781
577.5 8.294065
578 8.280545
578.5 8.274283
579 8.26443
579.5 8.248831
580 8.244395
580.5 8.218348
581 8.212277
581.5 8.216779
582 8.195175
582.5 8.171099
583 8.172647
583.5 8.167355
584 8.149198
584.5 8.135491
585 8.130196
585.5 8.131573
586 8.126491
586.5 8.114497
587 8.110729
587.5 8.100424
588 8.102446
588.5 8.087651
589 8.100846
589.5 8.083958
590 8.07398
590.5 8.077385
591 8.071782
591.5 8.063959
592 8.064786
592.5 8.060773
593 8.05133
593.5 8.057379
594 8.055149
594.5 8.040504
595 8.056854
595.5 8.048228
596 8.044728
596.5 8.043323
597 8.043011
597.5 8.028636
598 8.033472
598.5 8.039887
599 8.029275
599.5 8.035657
600 8.026886
600.5 8.028136
601 8.033671
601.5 8.034636
602 8.034296
602.5 8.021913
603 8.024863
603.5 8.025683
604 8.027884
604.5 8.023626
605 8.034853
605.5 8.02679
606 8.041366
606.5 8.018982
607 8.033619
607.5 8.03467
608 8.021916
608.5 8.047249
609 8.017885
609.5 8.026257
610 8.014908
610.5 8.031526
611 8.019249
611.5 8.027107
612 8.042819
612.5 8.036834
613 8.033238
613.5 8.022302
614 8.02939
614.5 8.004809
615 8.046247
615.5 8.041779
616 8.044779
616.5 8.027522
617 8.01632
617.5 8.048202
618 8.029544
618.5 8.042244
619 8.023049
619.5 8.052796
620 8.037053
620.5 8.039699
621 8.038454
621.5 8.051165
622 8.043728
622.5 8.039953
623 8.041838
623.5 8.043309
624 8.047279
624.5 8.044109
625 8.04272
625.5 8.055878
626 8.042399
626.5 8.052363
627 8.047891
627.5 8.057
628 8.054253
628.5 8.044922
629 8.04786
629.5 8.046232
630 8.05222
630.5 8.060585
631 8.049621
631.5 8.044871
632 8.059385
632.5 8.057359
633 8.062001
633.5 8.056286
634 8.068677
634.5 8.069313
635 8.070464
635.5 8.061611
636 8.072613
636.5 8.07476
637 8.071633
637.5 8.064596
638 8.06942
638.5 8.078444
639 8.084299
639.5 8.079562
640 8.078655
640.5 8.087256
641 8.076694
641.5 8.073008
642 8.084899
642.5 8.079908
643 8.094402
643.5 8.087267
644 8.100642
644.5 8.100127
645 8.111291
645.5 8.10223
646 8.108331
646.5 8.092215
647 8.100189
647.5 8.106104
648 8.110096
648.5 8.111011
649 8.101338
649.5 8.112186
650 8.092028
650.5 8.120713
651 8.115875
651.5 8.123378
652 8.125078
652.5 8.116824
653 8.128128
653.5 8.125476
654 8.117301
654.5 8.126166
655 8.130192
655.5 8.115002
656 8.137385
656.5 8.135074
657 8.139715
657.5 8.149803
658 8.135314
658.5 8.145002
659 8.123548
659.5 8.129688
660 8.131367
660.5 8.138429
661 8.137818
661.5 8.147668
662 8.142062
662.5 8.145341
663 8.151945
663.5 8.124145
664 8.141691
664.5 8.14478
665 8.152533
665.5 8.149057
666 8.138265
666.5 8.13994
667 8.143389
667.5 8.139697
668 8.154908
668.5 8.15597
669 8.139201
669.5 8.159631
670 8.150993
670.5 8.155582
671 8.154277
671.5 8.147604
672 8.157607
672.5 8.168489
673 8.164179
673.5 8.158384
674 8.156126
674.5 8.158437
675 8.152936
675.5 8.142972
676 8.164356
676.5 8.167831
677 8.171994
677.5 8.152739
678 8.160917
678.5 8.164567
679 8.17187
679.5 8.154274
680 8.164531
680.5 8.169819
681 8.170915
681.5 8.16521
682 8.146117
682.5 8.155417
683 8.171365
683.5 8.174737
684 8.162995
684.5 8.166761
685 8.171336
685.5 8.17605
686 8.167043
686.5 8.170175
687 8.1901
687.5 8.163114
688 8.177907
688.5 8.189344
689 8.163934
689.5 8.185098
690 8.17322
690.5 8.189378
691 8.191884
691.5 8.182552
692 8.19988
692.5 8.17889
693 8.182801
693.5 8.184996
694 8.198593
694.5 8.171876
695 8.204547
695.5 8.18283
696 8.209741
696.5 8.187594
697 8.200097
697.5 8.197507
698 8.19946
698.5 8.201028
699 8.226448
699.5 8.210899
700 8.186539
700.5 8.23978
701 8.227932
701.5 8.228096
702 8.218443
702.5 8.227023
703 8.219273
703.5 8.231109
704 8.236037
704.5 8.226552
705 8.241418
705.5 8.239236
706 8.226756
706.5 8.233408
707 8.240374
707.5 8.249606
708 8.264458
708.5 8.245911
709 8.23995
709.5 8.253947
710 8.275683
710.5 8.273547
711 8.269721
711.5 8.274146
712 8.275649
712.5 8.2948
713 8.299484
713.5 8.289984
714 8.290179
714.5 8.291432
715 8.306227
715.5 8.297035
716 8.323555
716.5 8.313043
717 8.318044
717.5 8.327978
718 8.325687
718.5 8.333106
719 8.349343
719.5 8.357602
720 8.350949
720.5 8.359527
721 8.359847
721.5 8.376323
722 8.366407
722.5 8.390612
723 8.384095
723.5 8.390845
724 8.419304
724.5 8.384757
725 8.430558
725.5 8.412888
726 8.402018
726.5 8.421877
727 8.438919
727.5 8.444354
728 8.4284
728.5 8.453207
729 8.436362
729.5 8.454833
730 8.456728
730.5 8.474268
731 8.467587
731.5 8.486167
732 8.475712
732.5 8.515085
733 8.493526
733.5 8.502841
734 8.533011
734.5 8.535925
735 8.515686
735.5 8.524039
736 8.542131
736.5 8.548147
737 8.552343
737.5 8.578955
738 8.554219
738.5 8.573305
739 8.596773
739.5 8.599454
740 8.589961
740.5 8.601303
741 8.609747
741.5 8.619281
742 8.633289
742.5 8.638137
743 8.652104
743.5 8.653186
744 8.66436
744.5 8.665986
745 8.657388
745.5 8.671153
746 8.705901
746.5 8.675654
747 8.701879
747.5 8.710264
748 8.716557
748.5 8.739278
749 8.730038
749.5 8.722464
750 8.73986
750.5 8.75268
751 8.759326
751.5 8.764894
752 8.780535
752.5 8.80683
753 8.804848
753.5 8.801346
754 8.817035
754.5 8.803371
755 8.826088
755.5 8.841488
756 8.807376
756.5 8.8491
757 8.866632
757.5 8.871601
758 8.861071
758.5 8.849703
759 8.894938
759.5 8.87048
760 8.911358
760.5 8.902464
761 8.920886
761.5 8.891957
762 8.934201
762.5 8.92477
763 8.918557
763.5 8.950589
764 8.965941
764.5 8.968645
765 8.982285
765.5 8.974344
766 9.018018
766.5 9.008561
767 9.021311
767.5 9.017633
768 9.009828
768.5 9.043111
769 9.029693
769.5 9.038874
770 9.080514
770.5 9.087386
771 9.086601
771.5 9.079542
772 9.08021
772.5 9.083501
773 9.081813
773.5 9.107704
774 9.093413
774.5 9.107554
775 9.12584
775.5 9.168023
776 9.117873
776.5 9.154548
777 9.168995
777.5 9.189475
778 9.194328
778.5 9.178073
779 9.21666
779.5 9.220432
780 9.215558
780.5 9.21878
781 9.216236
781.5 9.262744
782 9.273293
782.5 9.282871
783 9.292269
783.5 9.322577
784 9.294847
784.5 9.286918
785 9.342249
785.5 9.308885
786 9.373286
786.5 9.352057
787 9.348814
787.5 9.341284
788 9.356692
788.5 9.361935
789 9.384149
789.5 9.393074
790 9.391557
790.5 9.395245
791 9.406129
791.5 9.432589
792 9.394492
792.5 9.424254
793 9.446329
793.5 9.462876
794 9.440248
794.5 9.466393
795 9.489755
795.5 9.476035
796 9.514261
796.5 9.515776
797 9.554049
797.5 9.540968
798 9.530002
798.5 9.541396
799 9.561644
799.5 9.581979
800 9.580484
800.5 9.60623
801 9.604525
801.5 9.581768
802 9.56995
802.5 9.61984
803 9.646475
803.5 9.619199
804 9.617146
804.5 9.636667
805 9.620796
805.5 9.658544
806 9.681319
806.5 9.705166
807 9.685221
807.5 9.702813
808 9.699533
808.5 9.695067
809 9.739078
809.5 9.753481
810 9.746467
810.5 9.760761
811 9.750513
811.5 9.809849
812 9.78232
812.5 9.782533
813 9.827046
813.5 9.817552
814 9.824106
814.5 9.833522
815 9.809092
815.5 9.812429
816 9.845469
816.5 9.847632
817 9.845985
817.5 9.880806
818 9.901896
818.5 9.91699
819 9.893691
819.5 9.943453
820 9.902848
820.5 9.894373
821 9.881894
821.5 9.91575
822 9.917548
822.5 9.955087
823 9.955143
823.5 9.952986
824 9.923042
824.5 9.95696
825 9.996773
825.5 9.971944
826 9.947856
826.5 9.981533
827 10.004735
827.5 9.978757
828 10.020028
828.5 10.005803
829 10.043429
829.5 10.024747
830 9.982537
830.5 10.039379
831 10.027804
831.5 10.093427
832 10.048617
832.5 10.041817
833 10.032638
833.5 10.041489
834 10.079185
834.5 10.083977
835 10.071477
835.5 10.08165
836 10.056585
836.5 10.103381
837 10.073998
837.5 10.101756
838 10.120901
838.5 10.12674
839 10.127889
839.5 10.135412
840 10.129841
840.5 10.150124
841 10.118081
841.5 10.157926
842 10.140408
842.5 10.171142
843 10.153024
843.5 10.198946
844 10.173337
844.5 10.155449
845 10.176736
845.5 10.19166
846 10.20981
846.5 10.182073
847 10.214967
847.5 10.260586
848 10.249222
848.5 10.238535
849 10.180536
849.5 10.307845
850 10.273113
850.5 10.27085
851 10.353184
851.5 10.277482
852 10.406
852.5 10.472278
853 10.424928
853.5 10.3807
854 10.372826
854.5 10.366421
855 10.372514
855.5 10.413124
856 10.499045
856.5 10.438135
857 10.397963
857.5 10.540348
858 10.497556
858.5 10.624808
859 10.490876
859.5 10.521851
860 10.474517
860.5 10.564657
861 7.721073
861.5 7.607652
862 7.752804
862.5 7.579219
863 7.73439
863.5 7.68608
864 7.717223
864.5 7.747314
865 7.694487
865.5 7.884284
866 7.641332
866.5 7.81049
867 7.589522
867.5 7.721368
868 7.653616
868.5 7.821012
869 7.658674
869.5 7.653899
870 7.848333
870.5 7.779966
871 7.91145
871.5 7.601683
872 7.884964
872.5 7.817771
873 7.929035
873.5 7.726436
874 7.91794
874.5 7.880339
875 7.896041
875.5 7.992392
876 7.838897
876.5 8.038753
877 7.820053
877.5 7.894889
878 7.835531
878.5 7.943527
879 7.900984
879.5 7.968979
880 7.924331
880.5 7.82671
881 8.02533
881.5 7.845724
882 8.051477
882.5 7.758916
883 8.08039
883.5 7.813911
884 8.090508
884.5 7.980959
885 8.043303
885.5 8.122001
886 8.017629
886.5 8.114471
887 7.970498
887.5 8.183092
888 7.937761
888.5 8.104714
889 8.031432
889.5 8.087874
890 8.134628
890.5 8.074827
891 8.198056
891.5 8.0364
892 8.218893
892.5 7.943283
893 8.197555
893.5 7.940808
894 8.253819
894.5 8.036464
895 8.233263
895.5 8.161531
896 8.142105
896.5 8.222678
897 8.048216
897.5 8.307496
898 8.134491
898.5 8.39949
899 8.171797
899.5 8.316378
900 8.251964
900.5 8.154789
901 8.328252
901.5 8.179598
902 8.380519
902.5 8.142005
903 8.444682
903.5 8.049446
904 8.363635
904.5 8.187982
905 8.328092
905.5 8.225034
906 8.197077
906.5 8.345269
907 8.251412
907.5 8.423562
908 8.157703
908.5 8.436633
909 8.339894
909.5 8.472007
910 8.350266
910.5 8.494353
911 8.373927
911.5 8.384897
912 8.580101
912.5 8.26821
913 8.536788
913.5 8.408718
914 8.511528
914.5 8.297758
915 8.518587
915.5 8.396327
916 8.488174
916.5 8.416554
917 8.348712
917.5 8.511612
918 8.494598
918.5 8.620188
919 8.33431
919.5 8.54944
920 8.445911
920.5 8.56959
921 8.431464
921.5 8.52678
922 8.533518
922.5 8.505855
923 8.589161
923.5 8.505632
924 8.679122
924.5 8.439071
925 8.656161
925.5 8.524727
926 8.638971
926.5 8.68136
927 8.649831
927.5 8.58928
928 8.467128
928.5 8.755048
929 8.488679
929.5 8.727856
930 8.45767
930.5 8.719073
931 8.488753
931.5 8.745012
932 8.688553
932.5 8.688503
933 8.677814
933.5 8.589657
934 8.803428
934.5 8.608087
935 8.835883
935.5 8.609315
936 8.796862
936.5 8.705393
937 8.7159
937.5 8.817682
938 8.734149
938.5 8.846865
939 8.600707
939.5 8.896308
940 8.570014
940.5 8.903149
941 8.583815
941.5 8.808669
942 8.652155
942.5 8.849797
943 8.805453
943.5 8.749178
944 8.849283
944.5 8.673454
945 8.978155
945.5 8.803149
946 8.988102
946.5 8.799228
947 8.953416
947.5 8.889495
948 8.865178
948.5 8.886009
949 8.766935
949.5 8.964171
950 8.770714
950.5 8.966339
951 8.803638
951.5 8.975073
952 8.799468
952.5 8.977226
953 8.920082
953.5 8.804885
954 8.937786
954.5 8.890606
955 8.96037
955.5 8.811549
956 9.018734
956.5 8.943401
957 9.05174
957.5 8.93149
958 9.00897
958.5 8.994785
959 8.972528
959.5 9.080756
960 8.885743
960.5 9.065119
961 8.956235
961.5 9.075781
962 8.99281
962.5 8.995096
963 8.915
963.5 9.007233
964 9.018548
964.5 8.90874
965 9.083866
965.5 8.99196
966 9.18282
966.5 8.84043
967 9.103177
967.5 8.949263
968 9.217737
968.5 9.043179
969 9.044594
969.5 9.057281
970 9.073883
970.5 9.051288
971 9.002928
971.5 9.275386
972 9.051929
972.5 9.155888
973 9.096649
973.5 9.148728
974 9.124957
974.5 9.185858
975 9.201893
975.5 8.955149
976 9.331231
976.5 9.05209
977 9.334739
977.5 8.969492
978 9.172404
978.5 9.106387
979 9.236273
979.5 9.234796
980 9.220517
980.5 9.214617
981 9.104371
981.5 9.325694
982 9.134372
982.5 9.298931
983 9.20513
983.5 9.338845
984 9.195716
984.5 9.267581
985 9.310366
985.5 9.193095
986 9.309059
986.5 9.110735
987 9.396634
987.5 9.109148
988 9.445971
988.5 9.205314
989 9.258649
989.5 9.208954
990 9.25307
990.5 9.341426
991 9.246271
991.5 9.335379
992 9.121577
992.5 9.434669
993 9.317117
993.5 9.459782
994 9.295547
994.5 9.412132
995 9.393591
995.5 9.335061
996 9.418538
996.5 9.304759
997 9.532714
997.5 9.328338
998 9.380818
998.5 9.215116
999 9.408496
999.5 9.366793
1000 9.427772
1000.5 9.318523
1001 9.264591
1001.5 9.47556
1002 9.342556
1002.5 9.426692
1003 9.265086
1003.5 9.543154
1004 9.343666
1004.5 9.499626
1005 9.414323
1005.5 9.486543
1006 9.469906
1006.5 9.408671
1007 9.552758
1007.5 9.395395
1008 9.622274
1008.5 9.450851
1009 9.499305
1009.5 9.416521
1010 9.484577
1010.5 9.447636
1011 9.520172
1011.5 9.463248
1012 9.35418
1012.5 9.615994
1013 9.379873
1013.5 9.601345
1014 9.296507
1014.5 9.556723
1015 9.39709
1015.5 9.644978
1016 9.532198
1016.5 9.57476
1017 9.553909
1017.5 9.423921
1018 9.617985
1018.5 9.52067
1019 9.634823
1019.5 9.429809
1020 9.723654
1020.5 9.610255
1021 9.594475
1021.5 9.651607
1022 9.606453
1022.5 9.697516
1023 9.438799
1023.5 9.60269
1024 9.428076
1024.5 9.699421
1025 9.480111
1025.5 9.678122
1026 9.489062
1026.5 9.579483
1027 9.634477
1027.5 9.645592
1028 9.800091
1028.5 9.464028
1029 9.752842
1029.5 9.557024
1030 9.805151
1030.5 9.581811
1031 9.706745
1031.5 9.630668
1032 9.671491
1032.5 9.775451
1033 9.623126
1033.5 9.859832
1034 9.633898
1034.5 9.841524
1035 9.489285
1035.5 9.755839
1036 9.609211
1036.5 9.617644
1037 9.581487
1037.5 9.46735
1038 9.750262
1038.5 9.638721
1039 9.754053
1039.5 9.518071
1040 9.783533
1040.5 9.624358
1041 9.755183
1041.5 9.628692
1042 9.84642
1042.5 9.832642
1043 9.773369
1043.5 9.879951
1044 9.756661
1044.5 9.922972
1045 9.748695
1045.5 9.771643
1046 9.633554
1046.5 9.782115
1047 9.745841
1047.5 9.778097
1048 9.802564
1048.5 9.667594
1049 9.886499
1049.5 9.708245
1050 9.874062
1050.5 9.551223
1051 9.926243
1051.5 9.6386
1052 9.894131
1052.5 9.734488
1053 9.878868
1053.5 9.867048
1054 9.824266
1054.5 9.89335
1055 9.788886
1055.5 9.999104
1056 9.742901
1056.5 9.85814
1057 9.712555
1057.5 9.890211
1058 9.926619
1058.5 9.89522
1059 9.881761
1059.5 9.731358
1060 10.024665
1060.5 9.757799
1061 10.003379
1061.5 9.672283
1062 9.973084
1062.5 9.754701
1063 9.978632
1063.5 9.857521
1064 9.934958
1064.5 9.896433
1065 9.841025
1065.5 10.043658
1066 9.816458
1066.5 10.042115
1067 9.854086
1067.5 10.030079
1068 9.947912
1068.5 9.867501
1069 9.990701
1069.5 9.959392
1070 10.090225
1070.5 9.880509
1071 10.080355
1071.5 9.818118
1072 10.028633
1072.5 9.82203
1073 9.995639
1073.5 9.910183
1074 9.874932
1074.5 9.982553
1075 9.860855
1075.5 9.990294
1076 9.784972
1076.5 10.140975
1077 9.956431
1077.5 10.09493
1078 9.858734
1078.5 10.089768
1079 9.966655
1079.5 9.95425
1080 10.050558
1080.5 9.900554
1081 10.175758
1081.5 9.99075
1082 10.095771
1082.5 9.940932
1083 10.101708
1083.5 9.951203
1084 10.159469
1084.5 10.045937
1085 9.883738
1085.5 10.117229
1086 10.024316
1086.5 10.067257
1087 9.823991
1087.5 10.144997
1088 10.031316
1088.5 10.154524
1089 9.979942
1089.5 10.100117
1090 10.070057
1090.5 10.14123
1091 10.111278
1091.5 10.018846
1092 10.244152
1092.5 9.933732
1093 10.142405
1093.5 10.056337
1094 10.100893
1094.5 10.159079
1095 10.143517
1095.5 10.157873
1096 10.027799
1096.5 10.208973
1097 10.03226
1097.5 10.207158
1098 9.888964
1098.5 10.229167
1099 9.9143
1099.5 10.218151
1100 10.030761
1100.5 10.16036
1101 10.075069
1101.5 10.027053
1102 10.188584
1102.5 10.112177
1103 10.298157
1103.5 10.1122
1104 10.303741
1104.5 10.129791
1105 10.16406
1105.5 10.255887
1106 10.193171
1106.5 10.268222
1107 10.0968
1107.5 10.273565
1108 10.085265
1108.5 10.358639
1109 10.019667
1109.5 10.293502
1110 10.100507
1110.5 10.318389
1111 10.203948
1111.5 10.229076
1112 10.222808
1112.5 10.065204
1113 10.241505
1113.5 10.269862
1114 10.35872
1114.5 10.111972
1115 10.373612
1115.5 10.247045
1116 10.217359
1116.5 10.329569
1117 10.234929
1117.5 10.32753
1118 10.119349
1118.5 10.310421
1119 10.155859
1119.5 10.311402
1120 10.128187
1120.5 10.198989
1121 10.116045
1121.5 10.171852
1122 10.420779
1122.5 10.458693
1123 10.3398
1123.5 10.067914
1124 10.402691
1124.5 10.273125
1125 10.379849
1125.5 10.291813
1126 10.396007
1126.5 10.298399
1127 10.280372
1127.5 10.425256
1128 10.283533
1128.5 10.440686
1129 10.327096
1129.5 10.441317
1130 10.260954
1130.5 10.418601
1131 10.236565
1131.5 10.245522
1132 10.257053
1132.5 10.121918
1133 10.29033
1133.5 10.141984
1134 10.370875
1134.5 10.107675
1135 10.497449
1135.5 10.295871
1136 10.464942
1136.5 10.22231
1137 10.244145
1137.5 10.310234
1138 10.298178
1138.5 10.456158
1139 10.283706
1139.5 10.422854
1140 10.390708
1140.5 10.460649
1141 10.308111
1141.5 10.446319
1142 10.337058
1142.5 10.375816
1143 10.3871
1143.5 10.301033
1144 10.544228
1144.5 10.333764
1145 10.522322
1145.5 10.214606
1146 10.539959
1146.5 10.323642
1147 10.535404
1147.5 10.447875
1148 10.396148
1148.5 10.434417
1149 10.331156
1149.5 10.535125
1150 10.327908
1150.5 10.486039
1151 10.337818
1151.5 10.470171
1152 10.378623
1152.5 10.489082
1153 10.496794
1153.5 10.412342
1154 10.64613
1154.5 10.351074
1155 10.587688
1155.5 10.329313
1156 10.53165
1156.5 10.356396
1157 10.483004
1157.5 10.3325
1158 10.44297
1158.5 10.466159
1159 10.438144
1159.5 10.474236
1160 10.289714
1160.5 10.558582
1161 10.437148
1161.5 10.608689
1162 10.409836
1162.5 10.607288
1163 10.524681
1163.5 10.508222
1164 10.581245
1164.5 10.461999
1165 10.650427
1165.5 10.464481
1166 10.590804
1166.5 10.461944
1167 10.59003
1167.5 10.446952
1168 10.569091
1168.5 10.508124
1169 10.436757
1169.5 10.572144
1170 10.535115
1170.5 10.59844
1171 10.354702
1171.5 10.596642
1172 10.428912
1172.5 10.641345
1173 10.496283
1173.5 10.57855
1174 10.555087
1174.5 10.601315
1175 10.590311
1175.5 10.535565
1176 10.69898
1176.5 10.549937
1177 10.659514
1177.5 10.469451
1178 10.559776
1178.5 10.586775
1179 10.615738
1179.5 10.597561
1180 10.456626
1180.5 10.684039
1181 10.587578
1181.5 10.707967
1182 10.341669
1182.5 10.655057
1183 10.450339
1183.5 10.645907
1184 10.509133
1184.5 10.650045
1185 10.643136
1185.5 10.581118
1186 10.629975
1186.5 10.510714
1187 10.72739
1187.5 10.425153
1188 10.661951
1188.5 10.506737
1189 10.552118
1189.5 10.531956
1190 10.452118
1190.5 10.528266
1191 10.715432
1191.5 10.579474
1192 10.80174
1192.5 10.636903
1193 10.794321
1193.5 10.640112
1194 10.623027
1194.5 10.686697
1195 10.565618
1195.5 10.792377
1196 10.615841
1196.5 10.754264
1197 10.518392
1197.5 10.854473
1198 10.601167
1198.5 10.699497
1199 10.613636
1199.5 10.624139
1200 10.73207
1200.5 10.645127
1201 10.733476
1201.5 10.567623
1202 10.88326
1202.5 10.612809
1203 10.825267
1203.5 10.650069
1204 10.743854
1204.5 10.755278
1205 10.647155
1205.5 10.778835
1206 10.651874
1206.5 10.809737
1207 10.703148
1207.5 10.783341
1208 10.569108
1208.5 10.802661
1209 10.735003
1209.5 10.74575
1210 10.710196
1210.5 10.599968
1211 10.80791
1211.5 10.763179
1212 10.811858
1212.5 10.556847
1213 10.876377
1213.5 10.664464
1214 10.835239
1214.5 10.708027
1215 10.774445
1215.5 10.741657
1216 10.832915
1216.5 10.909519
1217 10.74238
1217.5 10.917822
1218 10.720013
1218.5 10.892037
1219 10.757641
1219.5 10.833997
1220 10.821898
1220.5 10.806321
1221 10.819615
1221.5 10.609622
1222 10.860085
1222.5 10.644772
1223 10.911274
1223.5 10.663499
1224 10.886078
1224.5 10.727925
1225 10.918276
1225.5 10.800492
1226 10.836021
1226.5 10.862844
1227 10.723234
1227.5 10.912057
1228 10.782475
1228.5 10.95503
1229 10.713249
1229.5 10.868874
1230 10.790566
1230.5 10.804292
1231 10.937414
1231.5 10.862436
1232 10.920345
1232.5 10.733552
1233 11.000531
1233.5 10.675802
1234 10.925791
1234.5 10.753018
1235 10.984018
1235.5 10.793015
1236 10.871228
1236.5 10.936038
1237 10.862876
1237.5 10.921524
1238 10.78447
1238.5 11.028381
1239 10.859102
1239.5 11.025152
1240 10.842477
1240.5 10.922311
1241 10.941672
1241.5 10.90472
1242 10.992234
1242.5 10.818727
1243 11.085315
1243.5 10.769423
1244 11.030455
1244.5 10.796054
1245 10.940181
1245.5 10.860973
1246 10.952506
1246.5 10.962731
1247 10.756871
1247.5 11.045173
1248 10.918748
1248.5 11.051341
1249 10.832879
1249.5 11.021878
1250 10.929427
1250.5 11.019246
1251 10.970938
1251.5 11.035683
1252 11.054371
1252.5 10.971672
1253 11.072782
1253.5 10.88114
1254 11.098933
1254.5 10.93226
1255 11.075274
1255.5 10.955553
1256 10.985871
1256.5 10.982635
1257 11.001725
1257.5 10.995287
1258 10.807756
1258.5 11.122379
1259 10.955709
1259.5 11.087493
1260 10.879219
1260.5 11.117794
1261 10.9386
1261.5 11.077196
1262 11.094618
1262.5 10.99614
1263 11.144983
1263.5 11.007505
1264 11.135215
1264.5 10.97654
1265 11.101808
1265.5 10.959478
1266 11.038488
1266.5 10.919889
1267 10.970525
1267.5 11.137192
1268 11.102889
1268.5 11.117046
1269 10.874914
1269.5 11.169363
1270 10.907485
1270.5 11.098958
1271 10.927185
1271.5 11.164433
1272 11.01978
1272.5 11.110374
1273 11.066717
1273.5 11.071151
1274 11.184485
1274.5 10.995433
1275 11.198837
1275.5 10.969354
1276 11.154687
1276.5 11.129109
1277 11.171264
1277.5 11.113302
1278 11.043357
1278.5 11.11168
1279 10.963686
1279.5 11.222114
1280 10.988335
1280.5 11.218131
1281 10.959174
1281.5 11.166535
1282 11.062184
1282.5 11.182719
1283 11.09978
1283.5 11.027975
1284 11.219701
1284.5 11.069483
1285 11.249587
1285.5 10.989229
1286 11.257972
1286.5 11.073349
1287 11.168259
1287.5 11.205366
1288 11.117052
1288.5 11.19248
1289 11.026598
1289.5 11.273839
1290 11.074299
1290.5 11.260183
1291 11.075373
1291.5 11.243345
1292 11.029585
1292.5 11.170064
1293 11.120182
1293.5 11.129691
1294 11.237512
1294.5 10.984387
1295 11.291334
1295.5 11.181056
1296 11.249961
1296.5 11.035711
1297 11.232648
1297.5 11.187258
1298 11.220552
1298.5 11.213446
1299 11.169261
1299.5 11.309107
1300 11.22778
1300.5 11.297411
1301 11.102682
1301.5 11.285543
1302 11.140025
1302.5 11.234497
1303 11.189345
1303.5 11.118114
1304 11.288818
1304.5 11.197194
1305 11.297876
1305.5 11.096587
1306 11.28542
1306.5 11.162388
1307 11.326461
1307.5 11.194467
1308 11.304037
1308.5 11.254721
1309 11.307964
1309.5 11.330588
1310 11.227018
1310.5 11.384189
1311 11.239504
1311.5 11.458419
1312 11.276517
1312.5 11.284289
1313 11.238161
1313.5 11.28172
1314 11.249463
1314.5 11.195667
1315 11.338788
1315.5 11.236569
1316 11.329476
1316.5 11.081437
1317 11.356577
1317.5 11.142671
1318 11.388215
1318.5 11.229476
1319 11.319607
1319.5 11.293691
1320 11.363745
1320.5 11.322157
1321 11.248796
1321.5 11.455818
1322 11.261106
1322.5 11.479472
1323 11.267693
1323.5 11.345904
1324 11.399186
1324.5 11.385011
1325 11.435825
1325.5 11.259644
1326 11.454552
1326.5 11.169928
1327 11.456733
1327.5 11.155369
1328 11.423141
1328.5 11.173307
1329 11.371188
1329.5 11.310247
1330 11.348483
1330.5 11.407011
1331 11.293531
1331.5 11.526503
1332 11.360172
1332.5 11.593972
1333 11.371937
1333.5 11.595204
1334 11.367206
1334.5 11.372097
1335 11.401626
1335.5 11.358321
1336 11.509559
1336.5 11.319993
1337 11.477742
1337.5 11.269645
1338 11.463252
1338.5 11.277478
1339 11.409091
1339.5 11.321755
1340 11.46621
1340.5 11.336152
1341 11.349446
1341.5 11.439966
1342 11.22988
1342.5 11.4709
1343 11.338703
1343.5 11.528995
1344 11.382942
1344.5 11.564902
1345 11.46111
1345.5 11.503661
1346 11.629053
1346.5 11.421339
1347 11.553978
1347.5 11.502791
1348 11.598987
1348.5 11.365665
1349 11.51234
1349.5 11.484132
1350 11.507265
1350.5 11.472178
1351 11.282626
1351.5 11.519109
1352 11.488684
1352.5 11.594757
1353 11.385483
1353.5 11.557244
1354 11.281739
1354.5 11.620621
1355 11.456514
1355.5 11.660992
1356 11.596557
1356.5 11.503664
1357 11.632636
1357.5 11.478872
1358 11.560833
1358.5 11.38166
1359 11.639994
1359.5 11.598045
1360 11.558083
1360.5 11.385754
1361 11.402618
1361.5 11.391296
1362 11.608104
1362.5 11.83457
1363 11.408453
1363.5 11.374494
1364 11.203176
1364.5 11.80118
1365 11.669705
1365.5 11.810289
1366 11.478435
1366.5 11.413983
1367 11.465168
1367.5 11.451848
1368 11.840834
1368.5 11.683537
1369 11.707976
1369.5 11.395471
1370 11.542137
1370.5 11.640516
1371 11.702738
1371.5 11.771321
1372 11.737481
1372.5 11.781926
1373 11.505023
1373.5 11.638839
1374 11.448971
1374.5 11.749334
1375 11.487203
1375.5 11.615677
1376 11.517287
1376.5 11.730099
1377 11.721448
1377.5 11.571156
1378 11.722531
1378.5 11.67526
1379 11.840011
1379.5 11.438453
1380 11.656114
1380.5 11.788943
1381 11.875425
1381.5 11.435965
1382 11.313311
1382.5 11.804958
1383 11.82804
1383.5 11.744596
1384 11.489908
1384.5 11.765666
1385 11.641341
1385.5 11.887892
1386 11.70646
1386.5 11.688591
1387 11.468048
1387.5 11.548755
1388 11.903841
1388.5 11.827967
1389 11.846972
1389.5 11.688478
1390 11.805167
1390.5 11.697897
1391 11.716205
1391.5 11.518545
1392 11.719203
1392.5 12.013794
1393 11.847416
1393.5 11.7117
1394 11.491163
1394.5 11.704262
1395 11.749057
1395.5 11.951456
1396 11.778121
1396.5 12.063786
1397 11.8928
1397.5 11.862341
1398 11.754338
1398.5 11.503968
1399 11.687675
1399.5 11.554728
1400 11.790687
1400.5 11.710194
1401 12.157187
1401.5 11.872576
1402 11.977801
1402.5 11.804871
1403 11.816246
1403.5 11.720105
1404 11.604981
1404.5 11.948244
1405 12.017161
1405.5 11.999813
1406 11.684588
1406.5 11.884917
1407 11.87054
1407.5 11.934291
1408 11.768688
1408.5 11.74995
1409 11.928195
1409.5 11.921594
1410 11.996688
1410.5 11.670141
1411 11.983037
1411.5 11.72497
1412 11.959606
1412.5 11.764392
1413 11.87872
1413.5 11.763911
1414 12.020379
1414.5 12.153688
1415 11.902801
1415.5 12.021854
1416 11.8421
1416.5 12.0352
1417 11.817958
1417.5 11.961876
1418 11.911706
1418.5 11.978875
1419 12.184138
1419.5 11.910997
1420 12.060433
1420.5 11.80051
1421 11.985492
1421.5 11.587642
1422 12.018468
1422.5 11.859801
1423 12.053081
1423.5 12.002609
1424 11.968806
1424.5 12.027917
1425 11.912481
1425.5 12.041965
1426 11.768702
1426.5 12.051643
1427 11.894074
1427.5 12.103587
1428 12.010183
1428.5 12.03094
1429 11.992528
1429.5 11.896472
1430 12.153491
1430.5 11.877872
1431 12.118615
1431.5 12.065257
1432 12.24498
1432.5 11.996069
1433 12.081453
1433.5 12.045764
1434 12.098772
1434.5 12.016853
1435 11.843698
1435.5 12.069438
1436 11.936186
1436.5 11.996636
1437 11.857439
1437.5 12.172598
1438 12.093
1438.5 12.271387
1439 12.16993
1439.5 12.244793
1440 12.239072
1440.5 12.053379
1441 12.202685
1441.5 11.996885
1442 12.123141
1442.5 12.092485
1443 12.113396
1443.5 12.01359
1444 12.010669
1444.5 12.074883
1445 12.18154
1445.5 12.318152
1446 12.031814
1446.5 12.204178
1447 12.053834
1447.5 12.1599
1448 12.00723
1448.5 12.165181
1449 12.008798
1449.5 12.148214
1450 12.263038
1450.5 12.294889
1451 12.335232
1451.5 12.166242
1452 12.312659
1452.5 12.093236
1453 12.24027
1453.5 12.106105
1454 12.270478
1454.5 12.265297
1455 12.247268
1455.5 12.400596
1456 12.245914
1456.5 12.291035
1457 11.97595
1457.5 12.331645
1458 12.049927
1458.5 12.255938
1459 12.158936
1459.5 12.280659
1460 12.281459
1460.5 12.275252
1461 12.359022
1461.5 12.238755
1462 12.327456
1462.5 12.166025
1463 12.409902
1463.5 12.266038
1464 12.276419
1464.5 12.312783
1465 12.322962
1465.5 12.404276
1466 12.223089
1466.5 12.414637
1467 12.171726
1467.5 12.472333
1468 12.145469
1468.5 12.370117
1469 12.114079
1469.5 12.430366
1470 12.357459
1470.5 12.362196
1471 12.38941
1471.5 12.218418
1472 12.450138
1472.5 12.272771
1473 12.449516
1473.5 12.2084
1474 12.443716
1474.5 12.301421
1475 12.323171
1475.5 12.405974
1476 12.379692
1476.5 12.536545
1477 12.282202
1477.5 12.489472
1478 12.224028
1478.5 12.480465
1479 12.299623
1479.5 12.396549
1480 12.323017
1480.5 12.414799
1481 12.4513
1481.5 12.433214
1482 12.445933
1482.5 12.214714
1483 12.489217
1483.5 12.424169
1484 12.564455
1484.5 12.391839
1485 12.50325
1485.5 12.530196
1486 12.535131
1486.5 12.647432
1487 12.468618
1487.5 12.753062
1488 12.548843
1488.5 12.698221
1489 12.367917
1489.5 12.546419
1490 12.491409
1490.5 12.595658
1491 12.46525
1491.5 12.369317
1492 12.55004
1492.5 12.511776
1493 12.553321
1493.5 12.310896
1494 12.590888
1494.5 12.43057
1495 12.647083
1495.5 12.493715
1496 12.60837
1496.5 12.53597
1497 12.600566
1497.5 12.652215
1498 12.561221
1498.5 12.731969
1499 12.602101
1499.5 12.773052
1500 12.645188
1500.5 12.648594
1501 12.625614
1501.5 12.647343
1502 12.64593
1502.5 12.505654
1503 12.688825
1503.5 12.47889
1504 12.689196
1504.5 12.371467
1505 12.695388
1505.5 12.500253
1506 12.694971
1506.5 12.623899
1507 12.670368
1507.5 12.699546
1508 12.669435
1508.5 12.722646
1509 12.632211
1509.5 12.778437
1510 12.639332
1510.5 12.847251
1511 12.642805
1511.5 12.680423
1512 12.836942
1512.5 12.755014
1513 12.828954
1513.5 12.651166
1514 12.926699
1514.5 12.649129
1515 12.928663
1515.5 12.753333
1516 12.858614
1516.5 12.660392
1517 12.775505
1517.5 12.747148
1518 12.703551
1518.5 12.797439
1519 12.570509
1519.5 12.860991
1520 12.692243
1520.5 12.871034
1521 12.730643
1521.5 12.848832
1522 12.766422
1522.5 12.766361
1523 12.893562
1523.5 12.728427
1524 12.938565
1524.5 12.737504
1525 12.89338
1525.5 12.689716
1526 12.90727
1526.5 12.854914
1527 12.930454
1527.5 12.9715
1528 12.895973
1528.5 13.008051
1529 12.812077
1529.5 12.960282
1530 12.756602
1530.5 12.968284
1531 12.807508
1531.5 12.890366
1532 12.811986
1532.5 12.900011
1533 12.941162
1533.5 12.909682
1534 12.998524
1534.5 12.803702
1535 13.056657
1535.5 12.846667
1536 12.910636
1536.5 12.809066
1537 12.961598
1537.5 12.965502
1538 13.034025
1538.5 13.049452
1539 12.871426
1539.5 13.106725
1540 13.007663
1540.5 13.140018
1541 12.9796
1541.5 13.172969
1542 12.877271
1542.5 13.0472
1543 12.942958
1543.5 12.978274
1544 13.054195
1544.5 12.997133
1545 13.107875
1545.5 12.978703
1546 13.093591
1546.5 12.952223
1547 13.103454
1547.5 12.980221
1548 12.985522
1548.5 13.170393
1549 13.11584
1549.5 13.172548
1550 13.01242
1550.5 13.267083
1551 13.031495
1551.5 13.185357
1552 12.928557
1552.5 13.174599
1553 13.048506
1553.5 13.25672
1554 13.144974
1554.5 13.084683
1555 13.133025
1555.5 12.990753
1556 13.229151
1556.5 13.03478
1557 13.264081
1557.5 13.107623
1558 13.265015
1558.5 13.103643
1559 13.159569
1559.5 13.279773
1560 13.16963
1560.5 13.296315
1561 13.002665
1561.5 13.360791
1562 13.07463
1562.5 13.357653
1563 13.197435
1563.5 13.243113
1564 13.150387
1564.5 13.144515
1565 13.213737
1565.5 13.136318
1566 13.293301
1566.5 13.089968
1567 13.273409
1567.5 13.198093
1568 13.325538
1568.5 13.25632
1569 13.329937
1569.5 13.333684
1570 13.17153
1570.5 13.415955
1571 13.184275
1571.5 13.518806
1572 13.248758
1572.5 13.48699
1573 13.226128
1573.5 13.335954
1574 13.245423
1574.5 13.347819
1575 13.278878
1575.5 13.124239
1576 13.451955
1576.5 13.315497
1577 13.38243
1577.5 13.262248
1578 13.460393
1578.5 13.349724
1579 13.360932
1579.5 13.407062
1580 13.376708
1580.5 13.465741
1581 13.346075
1581.5 13.481212
1582 13.337412
1582.5 13.527019
1583 13.34327
1583.5 13.5103
1584 13.408786
1584.5 13.426884
1585 13.540876
1585.5 13.510923
1586 13.68138
1586.5 13.33438
1587 13.691355
1587.5 13.361752
1588 13.52832
1588.5 13.375951
1589 13.566318
1589.5 13.484824
1590 13.521217
1590.5 13.530058
1591 13.455519
1591.5 13.583535
1592 13.480283
1592.5 13.617027
1593 13.478139
1593.5 13.572744
1594 13.493375
1594.5 13.63728
1595 13.485879
1595.5 13.500293
1596 13.764314
1596.5 13.639486
1597 13.667886
1597.5 13.321231
1598 13.650654
1598.5 13.397491
1599 13.602388
1599.5 13.500693
1600 13.641021
1600.5 13.599829
1601 13.701695
1601.5 13.696142
1602 13.597994
1602.5 13.76058
1603 13.567694
1603.5 13.853475
1604 13.672794
1604.5 13.756979
1605 13.72914
1605.5 13.797282
1606 13.745333
1606.5 13.568006
1607 13.769391
1607.5 13.575481
1608 13.73122
1608.5 13.447504
1609 13.721351
1609.5 13.545175
1610 13.80603
1610.5 13.665435
1611 13.733435
1611.5 13.690771
1612 13.613559
1612.5 13.843109
1613 13.682482
1613.5 13.866976
1614 13.620998
1614.5 13.892972
1615 13.756637
1615.5 13.913912
1616 13.845944
1616.5 13.852069
1617 13.977569
1617.5 13.819298
1618 13.968772
1618.5 13.665757
1619 13.943857
1619.5 13.804199
1620 13.866943
1620.5 13.732927
1621 13.790767
1621.5 13.797174
1622 13.827446
1622.5 13.892873
1623 13.589954
1623.5 14.014667
1624 13.849488
1624.5 14.018312
1625 13.774768
1625.5 14.059904
1626 13.876078
1626.5 13.923691
1627 13.972248
1627.5 13.911103
1628 14.073336
1628.5 13.963698
1629 14.036155
1629.5 13.788348
1630 13.983296
1630.5 13.919997
1631 13.969992
1631.5 13.867719
1632 13.829798
1632.5 14.07405
1633 13.953356
1633.5 14.067137
1634 13.822563
1634.5 14.053564
1635 13.889001
1635.5 14.120798
1636 13.976359
1636.5 14.161508
1637 14.110179
1637.5 14.090264
1638 14.096627
1638.5 13.983671
1639 14.136532
1639.5 13.964459
1640 14.153224
1640.5 13.957928
1641 14.068881
1641.5 14.004362
1642 14.088058
1642.5 14.056373
1643 13.984272
1643.5 14.155181
1644 14.015192
1644.5 14.183059
1645 13.900369
1645.5 14.214051
1646 13.967143
1646.5 14.224799
1647 14.173888
1647.5 14.23299
1648 14.238444
1648.5 14.241959
1649 14.298461
1649.5 14.079979
1650 14.3088
1650.5 14.043212
1651 14.277579
1651.5 14.112623
1652 14.250621
1652.5 14.259207
1653 14.222242
1653.5 14.201094
1654 14.054349
1654.5 14.328001
1655 14.058568
1655.5 14.375465
1656 14.078686
1656.5 14.328197
1657 14.177872
1657.5 14.432606
1658 14.362322
1658.5 14.308693
1659 14.311862
1659.5 14.08896
1660 14.41687
1660.5 14.205742
1661 14.413969
1661.5 14.220478
1662 14.401652
1662.5 14.286537
1663 14.286348
1663.5 14.348906
1664 14.311564
1664.5 14.470053
1665 14.226215
1665.5 14.456773
1666 14.14066
1666.5 14.413688
1667 14.211011
1667.5 14.300671
1668 14.249805
1668.5 14.245942
1669 14.335613
1669.5 14.112066
1670 14.269795
1670.5 14.264743
1671 14.415763
1671.5 14.303222
1672 14.462847
1672.5 14.358848
1673 14.388123
1673.5 14.548078
1674 14.478113
1674.5 14.597823
1675 14.314094
1675.5 14.51993
1676 14.357163
1676.5 14.486031
1677 14.346659
1677.5 14.495708
1678 14.486316
1678.5 14.492376
1679 14.564928
1679.5 14.454314
1680 14.68704
1680.5 14.572196
1681 14.700855
1681.5 14.556026
1682 14.546271
1682.5 14.496906
1683 14.476657
1683.5 14.564157
1684 14.401372
1684.5 14.654569
1685 14.447922
1685.5 14.657943
1686 14.392482
1686.5 14.736097
1687 14.505495
1687.5 14.670525
1688 14.565654
1688.5 14.536008
1689 14.602737
1689.5 14.583102
1690 14.701377
1690.5 14.522226
1691 14.693941
1691.5 14.498849
1692 14.661232
1692.5 14.645512
1693 14.697044
1693.5 14.772134
1694 14.766984
1694.5 14.802238
1695 14.552519
1695.5 14.704581
1696 14.421569
1696.5 14.757955
1697 14.532556
1697.5 14.703904
1698 14.573491
1698.5 14.743902
1699 14.751047
1699.5 14.689058
1700 14.791843
1700.5 14.680837
1701 14.91615
1701.5 14.649603
1702 14.809145
1702.5 14.661643
1703 14.851527
1703.5 14.743155
1704 14.680688
1704.5 14.84427
1705 14.656481
1705.5 14.941002
1706 14.600353
1706.5 14.888555
1707 14.633252
1707.5 14.944866
1708 14.809033
1708.5 14.907044
1709 14.866275
1709.5 14.828484
1710 14.905897
1710.5 14.81387
1711 14.941719
1711.5 14.72957
1712 14.944971
1712.5 14.83227
1713 14.860423
1713.5 14.863625
1714 14.977993
1714.5 14.999157
1715 14.878033
1715.5 15.087242
1716 14.86703
1716.5 15.15929
1717 14.904527
1717.5 15.067761
1718 14.789148
1718.5 15.030053
1719 14.98367
1719.5 14.96332
1720 15.020405
1720.5 14.777832
1721 15.081248
1721.5 15.049033
1722 15.082583
1722.5 14.891917
1723 15.131241
1723.5 14.960387
1724 15.077102
1724.5 15.048605
1725 15.033171
1725.5 15.156281
1726 15.049426
1726.5 15.154266
1727 14.991616
1727.5 15.195687
1728 15.037066
1728.5 15.103507
1729 15.099548
1729.5 15.050964
1730 15.197113
1730.5 15.113616
1731 15.131027
1731.5 14.909112
1732 15.201031
1732.5 15.108702
1733 15.224299
1733.5 15.042523
1734 15.217803
1734.5 15.151177
1735 15.234117
1735.5 15.22513
1736 15.177886
1736.5 15.235236
1737 15.199032
1737.5 15.339644
1738 15.260176
1738.5 15.411516
1739 15.288445
1739.5 15.264887
1740 15.232493
1740.5 15.162675
1741 15.335551
1741.5 15.173151
1742 15.333112
1742.5 15.020496
1743 15.331367
1743.5 15.158941
1744 15.377004
1744.5 15.271525
1745 15.303645
1745.5 15.311527
1746 15.34843
1746.5 15.40518
1747 15.258728
1747.5 15.398267
1748 15.226945
1748.5 15.520582
1749 15.319784
1749.5 15.358621
1750 15.403774
1750.5 15.414186
1751 15.395829
1751.5 15.266006
1752 15.465893
1752.5 15.270586
1753 15.518168
1753.5 15.199207
1754 15.42342
1754.5 15.321168
1755 15.48195
1755.5 15.41066
1756 15.407199
1756.5 15.48418
1757 15.337718
1757.5 15.640129
1758 15.42608
1758.5 15.554595
1759 15.394443
1759.5 15.577386
1760 15.517685
1760.5 15.525381
1761 15.554281
1761.5 15.483935
1762 15.690944
1762.5 15.416279
1763 15.677446
1763.5 15.457883
1764 15.779924
1764.5 15.530241
1765 15.683383
1765.5 15.467812
1766 15.567346
1766.5 15.660115
1767 15.487123
1767.5 15.669623
1768 15.431441
1768.5 15.727842
1769 15.600243
1769.5 15.712194
1770 15.572104
1770.5 15.741904
1771 15.72421
1771.5 15.701842
1772 15.826842
1772.5 15.660672
1773 15.824918
1773.5 15.621385
1774 15.702376
1774.5 15.546255
1775 15.697786
1775.5 15.609898
1776 15.653224
1776.5 15.693158
1777 15.490805
1777.5 15.773354
1778 15.704088
1778.5 15.836401
1779 15.599634
1779.5 15.890419
1780 15.754946
1780.5 15.938906
1781 15.771441
1781.5 15.809953
1782 15.894818
1782.5 15.866734
1783 15.954322
1783.5 15.770862
1784 15.912029
1784.5 15.700072
1785 15.962303
1785.5 15.805039
1786 15.879689
1786.5 15.917388
1787 15.875036
1787.5 15.875643
1788 15.790363
1788.5 15.979135
1789 15.793155
1789.5 16.035387
1790 15.855086
1790.5 15.98596
1791 15.872639
1791.5 16.043779
1792 15.984759
1792.5 15.993951
1793 16.052344
1793.5 16.029888
1794 16.105694
1794.5 15.977757
1795 16.224769
1795.5 15.956515
1796 16.134684
1796.5 15.994321
1797 16.01285
1797.5 16.050692
1798 15.934378
1798.5 16.00343
1799 15.845628
1799.5 16.143441
1800 15.853027
1800.5 16.208786
1801 16.05327
1801.5 16.20415
1802 16.058013
1802.5 16.12359
1803 16.100177
1803.5 16.000089
1804 16.043831
1804.5 15.93153
1805 16.21675
1805.5 16.169177
1806 16.344067
1806.5 16.180348
1807 16.223419
1807.5 16.210525
1808 16.123986
1808.5 16.257922
1809 16.048171
1809.5 16.275343
1810 16.019614
1810.5 16.315897
1811 16.13432
1811.5 16.344877
1812 16.263321
1812.5 16.364978
1813 16.237245
1813.5 16.090237
1814 16.280666
1814.5 16.080607
1815 16.443105
1815.5 16.333069
1816 16.573046
1816.5 16.285798
1817 16.276622
1817.5 16.229922
1818 16.324881
1818.5 16.317931
1819 16.042082
1819.5 16.241026
1820 16.255522
1820.5 16.544245
1821 16.340582
1821.5 16.602355
1822 16.457368
1822.5 16.523007
1823 16.416512
1823.5 16.3454
1824 16.395201
1824.5 16.135374
1825 16.291301
1825.5 16.338325
1826 16.750474
1826.5 16.527742
1827 16.673215
1827.5 16.313864
1828 16.381188
1828.5 16.43718
1829 16.369449
1829.5 16.417488
1830 16.377763
1830.5 16.614832
1831 16.496147
1831.5 16.733976
1832 16.683631
1832.5 16.68938
1833 16.47702
1833.5 16.387169
1834 16.471532
1834.5 16.403441
1835 16.532007
1835.5 16.270167
1836 16.697605
1836.5 16.478765
1837 16.80126
1837.5 16.619079
1838 16.699167
1838.5 16.485108
1839 16.498202
1839.5 16.590783
1840 16.482711
1840.5 16.522522
1841 16.387214
1841.5 16.718595
1842 16.741872
1842.5 16.9571
1843 16.815178
1843.5 16.888922
1844 16.777556
1844.5 16.638863
1845 16.669236
1845.5 16.431487
1846 16.647579
1846.5 16.304234
1847 16.717821
1847.5 16.594893
1848 16.939758
1848.5 16.841602
1849 16.906303
1849.5 16.881604
1850 16.830254
1850.5 16.925614
1851 16.775845
1851.5 16.818349
1852 16.499653
1852.5 16.704684
1853 16.742188
1853.5 17.055368
1854 17.002523
1854.5 16.905224
1855 16.838412
1855.5 16.555959
1856 16.892006
1856.5 16.855796
1857 17.183869
1857.5 16.766047
1858 16.853367
1858.5 16.589822
1859 16.760977
1859.5 16.970734
1860 17.033666
1860.5 17.280926
1861 16.852756
1861.5 17.052427
1862 16.86175
1862.5 17.001872
1863 16.750446
1863.5 17.103644
1864 17.105679
1864.5 17.175439
1865 17.215131
1865.5 16.936751
1866 17.0063
1866.5 16.699955
1867 16.968998
1867.5 16.936316
1868 17.300138
1868.5 17.062579
1869 16.969386
1869.5 16.829443
1870 16.908148
1870.5 17.0845
1871 17.078096
1871.5 17.092608
1872 16.712163
1872.5 17.08912
1873 17.13616
1873.5 17.294312
1874 17.257811
1874.5 17.100258
1875 17.011872
1875.5 17.010751
1876 17.181306
1876.5 17.142265
1877 17.424546
1877.5 17.182963
1878 17.38742
1878.5 17.055762
1879 17.184243
1879.5 17.101739
1880 17.18092
1880.5 17.235602
1881 17.200689
1881.5 17.378078
1882 17.15052
1882.5 17.188029
1883 16.8695
1883.5 17.372374
1884 17.232153
1884.5 17.36223
1885 17.2497
1885.5 17.260787
1886 17.372152
1886.5 17.389028
1887 17.502759
1887.5 17.252031
1888 17.399973
1888.5 17.0431
1889 17.283972
1889.5 17.206025
1890 17.415582
1890.5 17.439638
1891 17.355679
1891.5 17.376801
1892 17.27722
1892.5 17.582919
1893 17.384474
1893.5 17.667121
1894 17.33543
1894.5 17.551219
1895 17.286947
1895.5 17.513148
1896 17.410429
1896.5 17.431691
1897 17.406422
1897.5 17.30973
1898 17.399748
1898.5 17.190281
1899 17.564309
1899.5 17.54135
1900 17.78698
1900.5 17.711455
1901 17.465681
1901.5 17.488626
1902 17.422979
1902.5 17.620321
1903 17.329742
1903.5 17.573722
1904 17.188007
1904.5 17.476101
1905 17.40244
1905.5 17.658186
1906 17.487814
1906.5 17.722447
1907 17.764136
1907.5 17.717741
1908 17.766713
1908.5 17.449336
1909 17.723502
1909.5 17.508641
1910 17.670365
1910.5 17.487925
1911 17.570637
1911.5 17.589064
1912 17.461997
1912.5 17.603445
1913 17.577703
1913.5 17.882761
1914 17.685409
1914.5 17.85011
1915 17.637269
1915.5 17.882288
1916 17.892136
1916.5 17.839177
1917 17.804921
1917.5 17.574845
1918 17.698684
1918.5 17.612569
1919 17.714168
1919.5 17.47752
1920 17.955074
1920.5 17.902265
1921 18.02226
1921.5 17.881216
1922 17.825794
1922.5 17.861411
1923 17.720751
1923.5 17.927054
1924 17.681231
1924.5 17.856932
1925 17.643401
1925.5 17.807227
1926 17.631333
1926.5 17.814603
1927 17.855132
1927.5 17.840537
1928 17.934681
1928.5 17.734836
1929 18.009724
1929.5 17.80809
1930 17.984186
1930.5 17.85268
1931 18.092626
1931.5 17.884699
1932 18.044285
1932.5 17.96155
1933 17.918867
1933.5 18.122393
1934 17.958401
1934.5 18.083255
1935 17.89573
1935.5 18.100005
1936 17.963251
1936.5 18.147196
1937 17.909494
1937.5 17.895918
1938 18.072845
1938.5 18.029845
1939 18.152021
1939.5 17.833138
1940 18.180287
1940.5 17.92281
1941 18.154415
1941.5 17.997894
1942 18.174995
1942.5 18.008842
1943 18.098347
1943.5 18.129872
1944 18.048026
1944.5 18.26323
1945 18.023694
1945.5 18.265559
1946 18.104061
1946.5 18.192433
1947 18.158503
1947.5 18.232997
1948 18.149844
1948.5 18.057826
1949 18.286037
1949.5 18.091652
1950 18.274026
1950.5 18.040754
1951 18.305717
1951.5 18.125319
1952 18.295161
1952.5 18.218386
1953 18.248487
1953.5 18.33735
1954 18.160953
1954.5 18.372993
1955 18.218039
1955.5 18.406262
1956 18.190503
1956.5 18.430604
1957 18.226086
1957.5 18.333925
1958 18.392557
1958.5 18.343818
1959 18.39159
1959.5 18.231247
1960 18.572645
1960.5 18.291147
1961 18.434395
1961.5 18.266149
1962 18.40443
1962.5 18.273696
1963 18.355864
1963.5 18.402742
1964 18.3834
1964.5 18.464868
1965 18.230271
1965.5 18.584967
1966 18.412171
1966.5 18.51858
1967 18.36134
1967.5 18.490095
1968 18.480682
1968.5 18.439429
1969 18.593842
1969.5 18.409467
1970 18.651591
1970.5 18.422684
1971 18.695053
1971.5 18.377294
1972 18.549217
1972.5 18.524605
1973 18.547386
1973.5 18.499474
1974 18.428542
1974.5 18.637834
1975 18.416838
1975.5 18.62448
1976 18.420035
1976.5 18.675379
1977 18.480963
1977.5 18.639237
1978 18.589474
1978.5 18.699323
1979 18.662986
1979.5 18.574107
1980 18.671763
1980.5 18.592948
1981 18.826774
1981.5 18.597418
1982 18.756548
1982.5 18.562779
1983 18.643646
1983.5 18.708281
1984 18.699217
1984.5 18.673831
1985 18.546496
1985.5 18.829419
1986 18.71269
1986.5 18.807131
1987 18.57063
1987.5 18.862799
1988 18.706168
1988.5 18.86275
1989 18.770432
1989.5 18.775523
1990 18.864037
1990.5 18.840355
1991 18.9016
1991.5 18.74073
1992 18.87818
1992.5 18.72689
1993 18.942554
1993.5 18.810776
1994 18.901138
1994.5 18.936157
1995 18.923196
1995.5 18.888935
1996 18.760306
1996.5 18.993618
1997 18.720804
1997.5 19.032897
1998 18.83554
1998.5 19.01962
1999 18.885769
1999.5 19.007419
2000 18.982644
2000.5 18.911317
2001 19.033164
2001.5 18.887268
2002 19.20768
2002.5 18.913347
2003 19.152094
2003.5 18.961404
2004 19.112013
2004.5 19.001032
2005 19.004574
2005.5 19.177125
2006 18.939987
2006.5 19.163658
2007 18.904406
2007.5 19.176523
2008 18.842033
2008.5 19.234887
2009 19.097599
2009.5 19.164111
2010 19.159693
2010.5 19.206081
2011 19.360882
2011.5 19.019756
2012 19.237295
2012.5 18.984969
2013 19.298548
2013.5 19.122162
2014 19.189921
2014.5 19.124833
2015 19.137087
2015.5 19.191404
2016 19.062153
2016.5 19.263025
2017 19.138949
2017.5 19.404304
2018 19.215056
2018.5 19.363371
2019 19.132727
2019.5 19.268653
2020 19.205464
2020.5 19.238949
2021 19.208029
2021.5 18.996413
2022 19.320603
2022.5 19.276886
2023 19.428048
2023.5 19.16738
2024 19.499835
2024.5 19.284093
2025 19.419296
2025.5 19.452333
2026 19.359913
2026.5 19.437923
2027 19.277658
2027.5 19.42721
2028 19.28484
2028.5 19.428116
2029 19.359048
2029.5 19.442709
2030 19.342294
2030.5 19.385673
2031 19.491918
2031.5 19.417274
2032 19.571333
2032.5 19.363551
2033 19.533938
2033.5 19.401346
2034 19.413063
2034.5 19.354802
2035 19.550501
2035.5 19.461174
2036 19.555822
2036.5 19.635798
2037 19.551961
2037.5 19.715759
2038 19.47217
2038.5 19.607879
2039 19.433455
2039.5 19.627282
2040 19.554232
2040.5 19.625582
2041 19.564633
2041.5 19.410169
2042 19.638604
2042.5 19.48173
2043 19.631006
2043.5 19.329889
2044 19.71231
2044.5 19.525704
2045 19.727051
2045.5 19.659017
2046 19.790149
2046.5 19.830567
2047 19.691186
2047.5 19.775888
2048 19.593002
2048.5 19.916275
2049 19.630028
2049.5 19.888289
2050 19.739576
2050.5 19.752125
2051 19.701149
2051.5 19.743228
2052 19.808049
2052.5 19.618624
2053 19.859223
2053.5 19.620909
2054 19.759673
2054.5 19.548546
2055 19.818626
2055.5 19.667807
2056 19.818231
2056.5 19.872218
2057 19.792439
2057.5 19.959243
2058 19.817039
2058.5 20.052291
2059 19.873336
2059.5 19.942537
2060 19.819953
2060.5 19.972889
2061 19.890717
2061.5 19.814108
2062 19.983533
2062.5 19.85788
2063 20.188355
2063.5 19.827859
2064 20.154357
2064.5 19.73552
2065 19.997256
2065.5 19.846445
2066 19.989827
2066.5 19.88779
2067 19.967265
2067.5 20.090659
2068 20.003057
2068.5 20.175336
2069 19.791706
2069.5 20.161816
2070 19.981773
2070.5 20.09877
2071 20.025848
2071.5 20.059977
2072 20.231602
2072.5 20.080362
2073 20.241825
2073.5 19.921568
2074 20.172794
2074.5 20.004201
2075 20.157784
2075.5 19.992583
2076 20.191298
2076.5 20.138569
2077 20.162898
2077.5 20.205991
2078 19.906467
2078.5 20.23817
2079 20.095752
2079.5 20.248066
2080 20.114745
2080.5 20.314199
2081 20.165439
2081.5 20.320538
2082 20.320575
2082.5 20.279057
2083 20.341268
2083.5 20.194186
2084 20.397998
2084.5 20.221351
2085 20.384346
2085.5 20.260717
2086 20.408091
2086.5 20.238125
2087 20.198874
2087.5 20.377889
2088 20.292792
2088.5 20.418309
2089 20.18427
2089.5 20.505896
2090 20.233248
2090.5 20.480554
2091 20.234717
2091.5 20.435117
2092 20.387912
2092.5 20.407999
2093 20.456131
2093.5 20.380084
2094 20.502913
2094.5 20.338948
2095 20.533028
2095.5 20.406294
2096 20.565797
2096.5 20.416395
2097 20.486188
2097.5 20.451483
2098 20.392935
2098.5 20.538917
2099 20.495883
2099.5 20.672306
2100 20.408995
2100.5 20.697455
2101 20.343879
2101.5 20.613572
2102 20.468538
2102.5 20.595513
2103 20.544194
2103.5 20.612068
2104 20.71532
2104.5 20.549396
2105 20.713727
2105.5 20.48829
2106 20.635206
2106.5 20.553975
2107 20.631172
2107.5 20.666142
2108 20.679766
2108.5 20.705119
2109 20.586392
2109.5 20.874454
2110 20.597173
2110.5 20.80638
2111 20.505397
2111.5 20.70328
2112 20.571284
2112.5 20.796616
2113 20.697513
2113.5 20.738922
2114 20.837429
2114.5 20.679085
2115 20.846754
2115.5 20.731972
2116 20.919925
2116.5 20.688455
2117 20.98691
2117.5 20.850471
2118 20.814897
2118.5 20.979802
2119 20.788845
2119.5 20.943917
2120 20.710759
2120.5 20.907299
2121 20.704426
2121.5 21.01886
2122 20.79476
2122.5 20.959815
2123 20.925058
2123.5 20.96505
2124 20.91126
2124.5 20.827331
2125 20.975192
2125.5 20.693991
2126 21.010211
2126.5 20.935057
2127 21.037973
2127.5 20.969103
2128 21.140055
2128.5 21.051626
2129 20.95193
2129.5 21.078742
2130 20.866629
2130.5 21.134405
2131 20.964976
2131.5 21.134131
2132 20.947033
2132.5 21.180975
2133 21.050917
2133.5 21.157843
2134 21.005856
2134.5 20.918354
2135 21.1518
2135.5 21.031703
2136 21.197525
2136.5 21.007812
2137 21.289513
2137.5 21.097967
2138 21.261288
2138.5 21.209837
2139 21.232884
2139.5 21.218258
2140 21.182749
2140.5 21.261223
2141 21.111092
2141.5 21.323194
2142 21.161485
2142.5 21.309748
2143 21.153095
2143.5 21.20233
2144 21.361396
2144.5 21.351136
2145 21.394695
2145.5 21.132116
2146 21.434033
2146.5 21.143556
2147 21.368952
2147.5 21.102592
2148 21.336021
2148.5 21.202753
2149 21.396877
2149.5 21.384622
2150 21.331339
2150.5 21.51254
2151 21.338688
2151.5 21.552914
2152 21.340282
2152.5 21.438146
2153 21.289487
2153.5 21.444608
2154 21.387409
2154.5 21.439046
2155 21.490103
2155.5 21.481836
2156 21.532224
2156.5 21.22262
2157 21.512073
2157.5 21.191929
2158 21.581849
2158.5 21.381518
2159 21.507752
2159.5 21.495457
2160 21.490163
2160.5 21.605086
2161 21.530934
2161.5 21.701705
2162 21.520682
2162.5 21.812783
2163 21.566975
2163.5 21.589418
2164 21.601582
2164.5 21.613415
2165 21.563298
2165.5 21.510804
2166 21.728453
2166.5 21.466158
2167 21.730447
2167.5 21.472092
2168 21.808797
2168.5 21.544859
2169 21.793766
2169.5 21.744739
2170 21.789281
2170.5 21.797876
2171 21.571153
2171.5 21.818604
2172 21.631119
2172.5 21.825384
2173 21.5744
2173.5 21.894409
2174 21.755992
2174.5 21.824774
2175 21.8063
2175.5 21.800251
2176 21.912374
2176.5 21.711162
2177 21.959522
2177.5 21.745804
2178 22.028242
2178.5 21.737173
2179 21.890181
2179.5 21.648714
2180 21.72723
2180.5 21.854268
2181 21.811286
2181.5 21.942759
2182 21.741545
2182.5 22.053164
2183 21.928625
2183.5 21.997008
2184 21.809779
2184.5 21.987893
2185 21.913956
2185.5 21.943074
2186 22.018854
2186.5 21.934845
2187 22.111854
2187.5 21.993008
2188 22.101413
2188.5 21.965946
2189 22.132315
2189.5 22.020356
2190 22.032119
2190.5 21.958986
2191 21.981901
2191.5 22.079624
2192 22.077107
2192.5 22.133325
2193 21.930476
2193.5 22.202988
2194 22.072875
2194.5 22.144391
2195 22.030993
2195.5 22.218741
2196 22.24492
2196.5 22.224739
2197 22.197275
2197.5 22.036393
2198 22.278482
2198.5 22.080648
2199 22.324084
2199.5 22.053969
2200 22.24734
2200.5 22.212598
2201 22.342937
2201.5 22.251593
2202 22.143508
2202.5 22.385451
2203 22.261888
2203.5 22.436106
2204 22.092807
2204.5 22.372052
2205 22.164181
2205.5 22.315446
2206 22.247151
2206.5 22.215772
2207 22.319038
2207.5 22.279815
2208 22.486453
2208.5 22.299573
2209 22.545683
2209.5 22.345792
2210 22.568935
2210.5 22.490737
2211 22.507019
2211.5 22.521187
2212 22.370462
2212.5 22.493908
2213 22.286507
2213.5 22.555427
2214 22.269744
2214.5 22.533549
2215 22.336099
2215.5 22.559233
2216 22.430506
2216.5 22.524996
2217 22.55948
2217.5 22.549455
2218 22.572212
2218.5 22.352809
2219 22.636507
2219.5 22.491832
2220 22.614105
2220.5 22.528899
2221 22.649963
2221.5 22.620788
2222 22.513805
2222.5 22.719905
2223 22.590789
2223.5 22.791585
2224 22.455239
2224.5 22.652188
2225 22.462444
2225.5 22.72353
2226 22.581762
2226.5 22.686321
2227 22.617884
2227.5 22.539347
2228 22.729909
2228.5 22.685219
2229 22.806649
2229.5 22.613309
2230 22.884615
2230.5 22.81892
2231 22.914049
2231.5 22.695917
2232 22.753523
2232.5 22.774352
2233 22.719595
2233.5 22.896093
2234 22.628485
2234.5 22.891365
2235 22.712657
2235.5 22.890431
2236 22.772749
2236.5 22.919148
2237 22.921452
2237.5 22.955173
2238 22.849895
2238.5 22.652495
2239 22.897173
2239.5 22.803926
2240 22.962925
2240.5 22.794423
2241 22.992453
2241.5 22.877581
2242 23.027112
2242.5 23.005594
2243 22.992507
2243.5 23.126352
2244 22.969612
2244.5 23.060659
2245 22.818579
2245.5 23.01401
2246 22.884479
2246.5 23.067428
2247 22.94476
2247.5 23.004082
2248 23.052937
2248.5 23.054124
2249 23.089539
2249.5 22.954944
2250 23.250028
2250.5 22.910322
2251 23.127423
2251.5 22.896156
2252 23.122916
2252.5 23.001377
2253 23.097435
2253.5 23.136213
2254 23.118626
2254.5 23.228897
2255 23.099625
2255.5 23.370349
2256 23.065627
2256.5 23.304385
2257 23.21213
2257.5 23.136356
2258 23.07644
2258.5 23.046102
2259 23.272994
2259.5 23.047231
2260 23.265438
2260.5 23.022571
2261 23.313485
2261.5 23.053315
2262 23.348495
2262.5 23.219846
2263 23.319426
2263.5 23.151125
2264 23.177056
2264.5 23.258899
2265 23.207037
2265.5 23.40509
2266 23.182663
2266.5 23.434584
2267 23.275341
2267.5 23.408951
2268 23.350807
2268.5 23.453593
2269 23.509198
2269.5 23.169924
2270 23.377746
2270.5 23.181748
2271 23.472042
2271.5 23.197109
2272 23.389268
2272.5 23.210607
2273 23.417269
2273.5 23.354454
2274 23.351343
2274.5 23.396385
2275 23.244657
2275.5 23.653668
2276 23.485002
2276.5 23.645569
2277 23.361829
2277.5 23.534901
2278 23.397575
2278.5 23.461999
2279 23.470445
2279.5 23.453937
2280 23.629571
2280.5 23.429814
2281 23.656456
2281.5 23.440295
2282 23.659806
2282.5 23.513231
2283 23.713021
2283.5 23.592627
2284 23.654869
2284.5 23.574172
2285 23.545451
2285.5 23.598294
2286 23.382418
2286.5 23.655951
2287 23.57122
2287.5 23.677973
2288 23.554446
2288.5 23.712425
2289 23.631231
2289.5 23.720643
2290 23.743434
2290.5 23.713146
2291 23.865817
2291.5 23.555495
2292 23.81542
2292.5 23.597521
2293 23.736271
2293.5 23.657711
2294 23.784111
2294.5 23.750061
2295 23.6641
2295.5 23.844376
2296 23.742352
2296.5 23.800094
2297 23.536374
2297.5 23.923413
2298 23.695636
2298.5 23.919001
2299 23.827517
2299.5 23.960772
2300 23.801576
2300.5 23.831649
2301 23.935068
2301.5 23.777865
2302 23.985767
2302.5 23.820712
2303 24.064371
2303.5 23.791474
2304 23.991744
2304.5 23.919542
2305 23.995671
2305.5 23.925517
2306 23.83215
2306.5 24.077964
2307 23.844709
2307.5 23.973058
2308 23.774318
2308.5 24.08022
2309 23.836458
2309.5 24.12807
2310 24.044235
2310.5 24.00806
2311 24.013956
2311.5 23.935239
2312 24.145505
2312.5 24.062704
2313 24.153806
2313.5 23.915565
2314 24.203867
2314.5 24.07869
2315 24.083179
2315.5 24.093106
2316 24.113284
2316.5 24.210897
2317 24.036336
2317.5 24.218424
2318 23.975578
2318.5 24.317347
2319 24.040492
2319.5 24.299501
2320 24.07911
2320.5 24.263529
2321 24.255785
2321.5 24.234678
2322 24.357867
2322.5 24.112861
2323 24.500802
2323.5 24.29208
2324 24.381059
2324.5 24.151479
2325 24.434178
2325.5 24.269909
2326 24.328163
2326.5 24.339259
2327 24.314888
2327.5 24.488023
2328 24.302021
2328.5 24.480498
2329 24.225397
2329.5 24.497542
2330 24.31287
2330.5 24.439029
2331 24.368967
2331.5 24.413623
2332 24.526086
2332.5 24.487907
2333 24.583332
2333.5 24.31536
2334 24.524117
2334.5 24.450225
2335 24.524784
2335.5 24.330927
2336 24.530604
2336.5 24.48044
2337 24.565789
2337.5 24.579425
2338 24.548423
2338.5 24.66874
2339 24.532589
2339.5 24.755314
2340 24.519242
2340.5 24.70718
2341 24.59639
2341.5 24.749321
2342 24.660198
2342.5 24.591373
2343 24.669005
2343.5 24.51508
2344 24.741605
2344.5 24.408473
2345 24.727993
2345.5 24.437816
2346 24.754806
2346.5 24.579468
2347 24.703817
2347.5 24.70784
2348 24.774803
2348.5 24.809046
2349 24.76868
2349.5 24.947199
2350 24.671786
2350.5 24.924281
2351 24.775162
2351.5 24.892008
2352 24.721889
2352.5 24.79196
2353 24.87262
2353.5 24.720858
2354 24.87399
2354.5 24.72579
2355 24.977279
2355.5 24.678412
2356 24.945983
2356.5 24.718897
2357 25.004563
2357.5 24.920052
2358 24.925183
2358.5 24.948291
2359 24.862829
2359.5 25.049207
2360 24.834047
2360.5 25.031412
2361 24.764314
2361.5 25.092426
2362 24.896686
2362.5 24.975047
2363 24.94117
2363.5 24.981819
2364 25.090688
2364.5 24.985
2365 25.147653
2365.5 24.911028
2366 25.242198
2366.5 25.012988
2367 25.206012
2367.5 24.966723
2368 25.08522
2368.5 25.056386
2369 25.063905
2369.5 25.125518
2370 24.859054
2370.5 25.180596
2371 25.072494
2371.5 25.241992
2372 24.965893
2372.5 25.268438
2373 25.117946
2373.5 25.284904
2374 25.251576
2374.5 25.210825
2375 25.32492
2375.5 25.237715
2376 25.329587
2376.5 25.117812
2377 25.311735
2377.5 25.096098
2378 25.286865
2378.5 25.170839
2379 25.218257
2379.5 25.311139
2380 25.280023
2380.5 25.326952
2381 25.127628
2381.5 25.49082
2382 25.226146
2382.5 25.471535
2383 25.188279
2383.5 25.478271
2384 25.323147
2384.5 25.342762
2385 25.338539
2385.5 25.330773
2386 25.442719
2386.5 25.301653
2387 25.498641
2387.5 25.336346
2388 25.609255
2388.5 25.406075
2389 25.585413
2389.5 25.437385
2390 25.359944
2390.5 25.634915
2391 25.51243
2391.5 25.695515
2392 25.424767
2392.5 25.671649
2393 25.238991
2393.5 25.589544
2394 25.434086
2394.5 25.577906
2395 25.543749
2395.5 25.609002
2396 25.629899
2396.5 25.495031
2397 25.755435
2397.5 25.513446
2398 25.865945
2398.5 25.608671
2399 25.75247
2399.5 25.57863
2400 25.664696
2400.5 25.703064
2401 25.595927
2401.5 25.745928
2402 25.582442
2402.5 25.864407
2403 25.57247
2403.5 25.850353
2404 25.609979
2404.5 25.894997
2405 25.734186
2405.5 25.826323
2406 25.885645
2406.5 25.720277
2407 25.889197
2407.5 25.72102
2408 25.857705
2408.5 25.669485
2409 25.95337
2409.5 25.791398
2410 25.894591
2410.5 25.8553
2411 25.920284
2411.5 25.944585
2412 25.88309
2412.5 26.066428
2413 25.81788
2413.5 26.021281
2414 25.84869
2414.5 25.957271
2415 25.800842
2415.5 25.925684
2416 25.958306
2416.5 25.969452
2417 26.026174
2417.5 25.78086
2418 26.100361
2418.5 25.968337
2419 26.081297
2419.5 25.881445
2420 26.082587
2420.5 25.927308
2421 26.027566
2421.5 26.025462
2422 25.98924
2422.5 26.168483
2423 26.103318
2423.5 26.249874
2424 26.049879
2424.5 26.293916
2425 26.016679
2425.5 26.224178
2426 26.008552
2426.5 26.101872
2427 26.155236
2427.5 26.123208
2428 26.22788
2428.5 25.986674
2429 26.284716
2429.5 25.995865
2430 26.302758
2430.5 26.139894
2431 26.405859
2431.5 26.153898
2432 26.270124
2432.5 26.232716
2433 26.20326
2433.5 26.350254
2434 26.18368
2434.5 26.350266
2435 26.219893
2435.5 26.467776
2436 26.233768
2436.5 26.438978
2437 26.342055
2437.5 26.30966
2438 26.444215
2438.5 26.271829
2439 26.444283
2439.5 26.111475
2440 26.494932
2440.5 26.24087
2441 26.554933
2441.5 26.306051
2442 26.507914
2442.5 26.434433
2443 26.392537
2443.5 26.439327
2444 26.313671
2444.5 26.536053
2445 26.336169
2445.5 26.641914
2446 26.425731
2446.5 26.555318
2447 26.38953
2447.5 26.52466
2448 26.519778
2448.5 26.520351
2449 26.580864
2449.5 26.483336
2450 26.740205
2450.5 26.423371
2451 26.600847
2451.5 26.373288
2452 26.56582
2452.5 26.564389
2453 26.576969
2453.5 26.562041
2454 26.45162
2454.5 26.668388
2455 26.543617
2455.5 26.653138
2456 26.451564
2456.5 26.806608
2457 26.63078
2457.5 26.811254
2458 26.685467
2458.5 26.736096
2459 26.615372
2459.5 26.646006
2460 26.830056
2460.5 26.610866
2461 26.884151
2461.5 26.624122
2462 26.793182
2462.5 26.732004
2463 26.797312
2463.5 26.849484
2464 26.91595
2464.5 26.979342
2465 26.762155
2465.5 26.864353
2466 26.706675
2466.5 26.917446
2467 26.677391
2467.5 26.951733
2468 26.808015
2468.5 26.931581
2469 26.821113
2469.5 26.916823
2470 26.887488
2470.5 26.866236
2471 27.024138
2471.5 26.851931
2472 27.17889
2472.5 26.918587
2473 27.121794
2473.5 26.96169
2474 26.979068
2474.5 27.001205
2475 26.981378
2475.5 27.054474
2476 26.814827
2476.5 27.092269
2477 26.923057
2477.5 27.216598
2478 26.927376
2478.5 27.065799
2479 26.950222
2479.5 27.11868
2480 27.106988
2480.5 27.022669
2481 27.159595
2481.5 26.93674
2482 27.247083
2482.5 27.051702
2483 27.253565
2483.5 27.009287
2484 27.241406
2484.5 27.164477
2485 27.125332
2485.5 27.226564
2486 27.098605
2486.5 27.24869
2487 27.059656
2487.5 27.336371
2488 27.044284
2488.5 27.311313
2489 27.179414
2489.5 27.346459
2490 27.227479
2490.5 27.22784
2491 27.336359
2491.5 27.190956
2492 27.342984
2492.5 27.04342
2493 27.389517
2493.5 27.374011
2494 27.502662
2494.5 27.325338
2495 27.494177
2495.5 27.399805
2496 27.351665
2496.5 27.472723
2497 27.298361
2497.5 27.578712
2498 27.317193
2498.5 27.562958
2499 27.29992
2499.5 27.561456
2500 27.455181
2500.5 27.437875
2501 27.424386
2501.5 27.365491
2502 27.557853
2502.5 27.395508
2503 27.53523
2503.5 27.22705
2504 27.640966
2504.5 27.470821
2505 27.663788
2505.5 27.529529
2506 27.644122
2506.5 27.570188
2507 27.571675
2507.5 27.684885
2508 27.456611
2508.5 27.74924
2509 27.530909
2509.5 27.728727
2510 27.605397
2510.5 27.613059
2511 27.490982
2511.5 27.64158
2512 27.632234
2512.5 27.56848
2513 27.734098
2513.5 27.480093
2514 27.730563
2514.5 27.377489
2515 27.804893
2515.5 27.523053
2516 27.791819
2516.5 27.707258
2517 27.797371
2517.5 27.86667
2518 27.838218
2518.5 27.988866
2519 27.866238
2519.5 28.07512
2520 27.742437
2520.5 27.894661
2521 27.757338
2521.5 27.927685
2522 27.908754
2522.5 27.933475
2523 27.893496
2523.5 27.766386
2524 27.917242
2524.5 27.756
2525 28.015581
2525.5 27.698356
2526 28.027862
2526.5 27.748889
2527 27.920005
2527.5 27.877739
2528 27.943611
2528.5 27.857774
2529 27.715942
2529.5 27.987066
2530 27.815256
2530.5 27.993935
2531 27.815634
2531.5 28.09293
2532 27.976635
2532.5 28.054607
2533 28.116953
2533.5 27.972707
2534 28.179455
2534.5 27.994516
2535 28.254125
2535.5 27.957952
2536 28.319997
2536.5 28.147498
2537 28.310218
2537.5 28.207484
2538 28.088188
2538.5 28.160936
2539 28.172609
2539.5 28.18456
2540 27.970842
2540.5 28.272709
2541 28.053004
2541.5 28.166035
2542 28.019413
2542.5 28.345734
2543 28.236744
2543.5 28.24147
2544 28.317097
2544.5 28.279039
2545 28.351742
2545.5 28.21632
2546 28.366596
2546.5 28.190595
2547 28.338823
2547.5 28.201663
2548 28.258353
2548.5 28.107703
2549 28.127736
2549.5 28.313482
2550 28.289318
2550.5 28.400806
2551 28.156066
2551.5 28.459227
2552 28.337935
2552.5 28.544247
2553 28.366092
2553.5 28.518108
2554 28.586203
2554.5 28.661919
2555 28.680757
2555.5 28.565246
2556 28.649116
2556.5 28.461733
2557 28.629693
2557.5 28.447798
2558 28.520894
2558.5 28.385994
2559 28.630546
2559.5 28.232241
2560 28.377223
2560.5 28.226826
2561 28.332973
2561.5 28.541207
2562 28.275076
2562.5 28.606248
2563 28.323311
2563.5 28.674206
2564 28.536183
2564.5 28.752884
2565 28.582975
2565.5 28.563678
2566 28.78806
2566.5 28.516072
2567 28.719744
2567.5 28.428391
2568 28.779161
2568.5 28.557259
2569 28.665945
2569.5 28.65808
2570 28.696945
2570.5 28.690165
2571 28.614488
2571.5 28.741544
2572 28.461334
2572.5 28.792098
2573 28.530106
2573.5 28.798726
2574 28.552061
2574.5 28.783739
2575 28.818825
2575.5 28.734505
2576 28.808257
2576.5 28.715143
2577 29.058498
2577.5 28.851351
2578 28.939575
2578.5 28.706267
2579 28.940579
2579.5 28.680259
2580 28.872925
2580.5 28.795534
2581 28.842589
2581.5 28.834036
2582 28.665379
2582.5 28.863966
2583 28.649583
2583.5 28.911778
2584 28.812513
2584.5 29.002136
2585 28.846258
2585.5 28.944114
2586 28.966758
2586.5 29.027849
2587 29.065555
2587.5 28.864056
2588 29.227459
2588.5 29.014403
2589 29.201627
2589.5 28.825149
2590 29.098934
2590.5 28.864107
2591 29.007035
2591.5 28.864387
2592 28.947496
2592.5 28.9507
2593 28.836995
2593.5 29.165083
2594 28.936625
2594.5 29.213533
2595 28.96055
2595.5 29.169855
2596 29.015899
2596.5 29.224366
2597 29.336667
2597.5 29.279968
2598 29.554772
2598.5 29.187277
2599 29.33628
2599.5 29.046136
2600 29.264426
2600.5 28.900528
2601 29.245374
2601.5 29.138005
2602 29.167527
2602.5 29.232031
2603 29.152027
2603.5 29.113334
2604 29.049426
2604.5 29.30361
2605 29.142481
2605.5 29.425374
2606 29.210722
2606.5 29.419804
2607 29.338679
2607.5 29.381046
2608 29.420325
2608.5 29.307231
2609 29.585052
2609.5 29.328707
2610 29.698032
2610.5 29.316476
2611 29.542527
2611.5 29.295006
2612 29.500943
2612.5 29.326165
2613 29.263067
2613.5 29.453045
2614 29.360899
2614.5 29.417527
2615 29.067072
2615.5 29.287392
2616 29.311872
2616.5 29.569158
2617 29.435062
2617.5 29.572114
2618 29.481766
2618.5 29.523972
2619 29.654369
2619.5 29.609281
2620 29.717168
2620.5 29.441386
2621 29.438186
2621.5 29.8069
2622 29.473811
2622.5 29.824916
2623 29.524702
2623.5 29.761857
2624 29.533017
2624.5 29.705593
2625 29.715741
2625.5 29.525012
2626 29.633671
2626.5 29.394281
2627 29.780939
2627.5 29.560149
2628 29.679033
2628.5 29.467353
2629 29.780397
2629.5 29.64628
2630 29.640636
2630.5 29.83706
2631 29.692215
2631.5 29.896823
2632 29.63495
2632.5 29.894447
2633 29.682499
2633.5 30.031726
2634 29.803088
2634.5 30.002749
2635 29.907221
2635.5 29.9582
2636 30.135524
2636.5 29.982185
2637 30.067405
2637.5 29.763404
2638 30.038032
2638.5 29.916269
2639 30.046323
2639.5 29.796821
2640 30.015573
2640.5 29.927418
2641 29.940185
2641.5 29.96529
2642 29.868716
2642.5 30.048135
2643 29.894871
2643.5 30.103061
2644 29.912564
2644.5 30.074948
2645 30.060169
2645.5 30.232295
2646 30.081493
2646.5 30.096203
2647 30.320612
2647.5 30.205458
2648 30.225423
2648.5 29.847628
2649 30.262607
2649.5 29.963058
2650 30.227739
2650.5 29.926997
2651 30.008125
2651.5 30.034524
2652 30.215952
2652.5 30.268422
2653 30.218574
2653.5 30.413041
2654 30.160105
2654.5 30.413824
2655 30.224398
2655.5 30.419552
2656 30.263418
2656.5 30.395222
2657 30.265829
2657.5 30.110851
2658 30.295411
2658.5 30.168843
2659 30.367953
2659.5 30.095226
2660 30.418327
2660.5 30.053705
2661 30.389008
2661.5 30.214947
2662 30.312359
2662.5 30.279839
2663 30.213901
2663.5 30.326477
2664 30.129048
2664.5 30.368054
2665 30.106482
2665.5 30.321473
2666 30.153385
2666.5 30.288258
2667 30.306104
2667.5 30.382726
2668 30.443555
2668.5 30.249199
2669 30.454484
2669.5 30.264533
2670 30.548096
2670.5 30.364355
2671 30.552813
2671.5 30.226338
2672 30.327076
2672.5 30.306733
2673 30.289406
2673.5 30.329263
2674 30.120459
2674.5 30.503324
2675 30.381522
2675.5 30.488667
2676 30.358732
2676.5 30.625936
2677 30.426288
2677.5 30.543974
2678 30.516955
2678.5 30.51458
2679 30.581239
2679.5 30.488053
2680 30.681324
2680.5 30.503985
2681 30.709526
2681.5 30.583256
2682 30.64169
2682.5 30.489674
2683 30.677682
2683.5 30.676034
2684 30.686367
2684.5 30.73777
2685 30.563536
2685.5 30.87199
2686 30.623865
2686.5 30.923679
2687 30.680645
2687.5 30.964357
2688 30.82076
2688.5 30.956841
2689 30.810663
2689.5 30.765843
2690 30.878633
2690.5 30.748263
2691 30.918288
2691.5 30.708507
2692 30.885237
2692.5 30.609131
2693 30.840239
2693.5 30.839533
2694 30.821052
2694.5 30.877408
2695 30.869594
2695.5 30.922103
2696 30.644754
2696.5 30.962172
2697 30.697075
2697.5 30.991384
2698 30.829212
2698.5 31.105873
2699 30.933905
2699.5 31.101397
2700 31.058463
2700.5 31.051615
2701 31.257778
2701.5 30.974245
2702 31.299269
2702.5 31.000224
2703 31.178635
2703.5 30.976367
2704 31.123805
2704.5 31.016955
2705 31.051642
2705.5 31.118938
2706 30.996725
2706.5 31.111556
2707 30.863786
2707.5 31.102851
2708 30.763468
2708.5 31.064785
2709 31.000158
2709.5 31.094673
2710 30.986023
2710.5 31.044331
2711 31.239191
2711.5 31.112623
2712 31.246322
2712.5 30.943415
2713 31.4275
2713.5 31.287667
2714 31.365964
2714.5 31.131104
2715 31.319731
2715.5 31.279573
2716 31.147578
2716.5 31.382778
2717 31.133944
2717.5 31.396499
2718 31.057635
2718.5 31.293404
2719 30.917281
2719.5 31.136307
2720 31.092006
2720.5 31.247032
2721 31.198972
2721.5 31.053734
2722 31.283605
2722.5 31.096885
2723 31.259105
2723.5 31.015328
2724 31.308967
2724.5 31.138512
2725 31.481841
2725.5 31.391263
2726 31.413862
2726.5 31.359184
2727 31.431371
2727.5 31.627908
2728 31.52779
2728.5 31.832534
2729 31.383213
2729.5 31.570038
2730 31.389049
2730.5 31.529894
2731 31.453097
2731.5 31.573784
2732 31.535703
2732.5 31.377292
2733 31.538349
2733.5 31.364378
2734 31.599107
2734.5 31.16011
2735 31.522393
2735.5 31.293705
2736 31.472945
2736.5 31.37683
2737 31.31941
2737.5 31.356221
2738 31.290734
2738.5 31.504655
2739 31.304944
2739.5 31.56229
2740 31.277266
2740.5 31.630957
2741 31.477413
2741.5 31.579971
2742 31.448993
2742.5 31.563801
2743 31.642178
2743.5 31.446055
2744 31.753382
2744.5 31.521544
2745 31.849572
2745.5 31.687996
2746 31.87224
2746.5 31.595567
2747 31.764922
2747.5 31.667587
2748 31.689563
2748.5 31.791875
2749 31.50768
2749.5 31.828576
2750 31.595102
2750.5 31.835288
2751 31.630689
2751.5 31.945685
2752 31.683105
2752.5 31.730849
2753 31.711793
2753.5 31.617093
2754 31.78772
2754.5 31.64832
2755 31.86852
2755.5 31.662112
2756 31.861615
2756.5 31.698063
2757 31.829539
2757.5 31.737754
2758 31.769022
2758.5 31.769767
2759 31.726432
2759.5 31.748334
2760 31.560034
2760.5 31.897554
2761 31.709337
2761.5 31.909135
2762 31.714192
2762.5 31.927428
2763 31.789514
2763.5 31.827545
2764 31.805032
2764.5 31.68166
2765 31.838971
2765.5 31.779006
2766 32.013246
2766.5 31.751943
2767 32.057863
2767.5 31.913143
2768 32.030553
2768.5 31.885764
2769 31.901324
2769.5 32.044622
2770 31.989032
2770.5 32.062805
2771 31.733271
2771.5 32.284555
2772 31.907803
2772.5 32.273003
2773 31.962827
2773.5 32.170403
2774 31.998095
2774.5 32.099962
2775 32.052839
2775.5 32.028028
2776 32.110798
2776.5 31.967032
2777 32.316902
2777.5 31.973404
2778 32.203063
2778.5 32.082236
2779 32.230499
2779.5 32.099199
2780 31.955156
2780.5 32.180157
2781 32.004789
2781.5 32.192698
2782 31.930321
2782.5 32.226393
2783 31.868029
2783.5 32.168084
2784 31.96291
2784.5 32.137319
2785 32.116523
2785.5 32.033741
2786 32.210404
2786.5 32.151785
2787 32.305872
2787.5 32.100174
2788 32.465628
2788.5 32.227147
2789 32.361075
2789.5 32.280385
2790 32.381883
2790.5 32.451767
2791 32.302007
2791.5 32.547104
2792 32.334682
2792.5 32.653585
2793 32.369956
2793.5 32.54351
2794 32.245845
2794.5 32.52486
2795 32.377198
2795.5 32.397515
2796 32.341176
2796.5 32.127979
2797 32.464311
2797.5 32.347274
2798 32.410657
2798.5 32.189289
2799 32.453004
2799.5 32.346117
2800 32.64105
##END=
