##TITLE= W6932-2-3mm-030924
##JCAMP-DX= 4.24
##DATA TYPE= UV/VIS SPECTRUM
##ORIGIN=  Lambda-SPX/P Scan
##OWNER= Optiplex/OPTIPLEX-755
##DATE= 03.09.2024 13:05:51
##SPECTROMETER/DATA SYSTEM= Lambda 19 UV/Vis/NIR
##SAMPLE DESCRIPTION= 030924
##DELTAX= 0.5
##XUNITS= NANOMETERS
##YUNITS= TRANSMITTANCE
$$COMMENT= RTUNITS 0-1
##XFACTOR= 1.0
##YFACTOR= 0.01
##FIRSTX= 200
##LASTX= 2800
##NPOINTS= 5201
##FIRSTY= 0.000129
##MAXY= 0.311416
##MINY= -0.000061
##XYDATA= (XY..XY)
200 0.012887
200.5 -0.006116
201 0.015738
201.5 -0.002192
202 0.015833
202.5 0.004943
203 0.004625
203.5 0.007496
204 0.010931
204.5 0.008242
205 -0.003878
205.5 0.011733
206 0.006564
206.5 0.012078
207 0.012165
207.5 -0.000058
208 0.011575
208.5 0.005835
209 0.018024
209.5 -0.002913
210 0.016961
210.5 0.001571
211 0.014712
211.5 0.006695
212 0.003536
212.5 0.009899
213 0.007491
213.5 0.014074
214 -0.003301
214.5 0.01149
215 0.00208
215.5 0.011498
216 0.009652
216.5 0.00665
217 0.009719
217.5 0.006294
218 0.013348
218.5 0.007373
219 0.017368
219.5 0.007487
220 0.011621
220.5 0.009
221 0.004999
221.5 0.009956
222 0.009242
222.5 0.01632
223 0.007152
223.5 0.013917
224 0.003472
224.5 0.01833
225 0.004353
225.5 0.013999
226 0.005487
226.5 0.012533
227 0.012001
227.5 0.025856
228 0.017898
228.5 0.010834
229 0.019348
229.5 0.022221
230 0.022836
230.5 0.0225
231 0.026183
231.5 0.032051
232 0.03241
232.5 0.040991
233 0.032853
233.5 0.053768
234 0.038285
234.5 0.052859
235 0.034798
235.5 0.058784
236 0.050574
236.5 0.063871
237 0.061334
237.5 0.053881
238 0.066257
238.5 0.0561
239 0.072071
239.5 0.064377
240 0.065159
240.5 0.065601
241 0.070607
241.5 0.071376
242 0.062345
242.5 0.070854
243 0.062773
243.5 0.073681
244 0.066907
244.5 0.07358
245 0.061942
245.5 0.066716
246 0.063319
246.5 0.059919
247 0.064786
247.5 0.054579
248 0.063794
248.5 0.060261
249 0.057293
249.5 0.04814
250 0.060477
250.5 0.052481
251 0.052223
251.5 0.048765
252 0.049852
252.5 0.052337
253 0.056539
253.5 0.052104
254 0.042401
254.5 0.051455
255 0.046807
255.5 0.049024
256 0.044945
256.5 0.047015
257 0.049004
257.5 0.043548
258 0.045893
258.5 0.032547
259 0.050731
259.5 0.033912
260 0.046108
260.5 0.035374
261 0.040454
261.5 0.036089
262 0.041741
262.5 0.041241
263 0.032154
263.5 0.039709
264 0.034066
264.5 0.041769
265 0.036393
265.5 0.036679
266 0.037536
266.5 0.033982
267 0.038342
267.5 0.028165
268 0.046907
268.5 0.030601
269 0.041569
269.5 0.030781
270 0.032627
270.5 0.034614
271 0.034559
271.5 0.037056
272 0.026556
272.5 0.035745
273 0.025028
273.5 0.034556
274 0.031809
274.5 0.032334
275 0.027524
275.5 0.033616
276 0.031744
276.5 0.03298
277 0.033214
277.5 0.028574
278 0.032621
278.5 0.036297
279 0.037016
279.5 0.02955
280 0.036021
280.5 0.036605
281 0.034079
281.5 0.034323
282 0.02869
282.5 0.039879
283 0.030412
283.5 0.039187
284 0.018398
284.5 0.037486
285 0.027141
285.5 0.040914
286 0.03362
286.5 0.030859
287 0.036226
287.5 0.041946
288 0.037369
288.5 0.031035
289 0.041502
289.5 0.037532
290 0.04275
290.5 0.040392
291 0.033888
291.5 0.045299
292 0.038737
292.5 0.048648
293 0.033356
293.5 0.047386
294 0.036347
294.5 0.050222
295 0.043084
295.5 0.04215
296 0.050624
296.5 0.047473
297 0.051752
297.5 0.040615
298 0.054478
298.5 0.048492
299 0.057544
299.5 0.055441
300 0.052412
300.5 0.060633
301 0.05684
301.5 0.065216
302 0.059829
302.5 0.073224
303 0.063619
303.5 0.07185
304 0.069189
304.5 0.071738
305 0.073696
305.5 0.074281
306 0.087322
306.5 0.079493
307 0.085267
307.5 0.078659
308 0.09743
308.5 0.084454
309 0.099525
309.5 0.090665
310 0.101944
310.5 0.106083
311 0.120778
311.5 0.119502
312 0.114248
312.5 0.125648
313 0.131136
313.5 0.134876
314 0.134022
314.5 0.143224
315 0.153652
315.5 0.150703
316 0.162378
316.5 0.162285
317 0.18797
317.5 0.179468
318 0.187714
318.5 0.182834
319 0.174087
319.5 0.209693
320 0.220301
320.5 0.214397
321 0.241436
321.5 0.240889
322 0.247379
322.5 0.267494
323 0.260375
323.5 0.286352
324 0.285571
324.5 0.295918
325 0.299042
325.5 0.319416
326 0.32118
326.5 0.34798
327 0.340949
327.5 0.354137
328 0.369129
328.5 0.396514
329 0.391555
329.5 0.400948
330 0.425001
330.5 0.431953
331 0.456476
331.5 0.456094
332 0.469298
332.5 0.483022
333 0.494184
333.5 0.516927
334 0.515363
334.5 0.546067
335 0.538051
335.5 0.575978
336 0.566812
336.5 0.599479
337 0.597597
337.5 0.627855
338 0.642792
338.5 0.635668
339 0.675953
339.5 0.674189
340 0.700404
340.5 0.717954
341 0.728091
341.5 0.7404
342 0.770989
342.5 0.778847
343 0.79815
343.5 0.813173
344 0.822589
344.5 0.844429
345 0.877106
345.5 0.886781
346 0.899294
346.5 0.926301
347 0.929447
347.5 0.95571
348 0.975269
348.5 0.994528
349 1.01833
349.5 1.035994
350 1.056398
350.5 1.067009
351 1.106693
351.5 1.115652
352 1.139254
352.5 1.148882
353 1.190894
353.5 1.204595
354 1.230767
354.5 1.237385
355 1.255494
355.5 1.293563
356 1.31623
356.5 1.32521
357 1.350438
357.5 1.377007
358 1.39861
358.5 1.4103
359 1.432463
359.5 1.458281
360 1.492398
360.5 1.497907
361 1.542678
361.5 1.561916
362 1.589431
362.5 1.606675
363 1.646804
363.5 1.656986
364 1.691476
364.5 1.722908
365 1.731794
365.5 1.782719
366 1.803036
366.5 1.859092
367 1.871051
367.5 1.90463
368 1.954624
368.5 1.990968
369 2.027734
369.5 2.046594
370 2.102247
370.5 2.156133
371 2.222331
371.5 2.229466
372 2.298963
372.5 2.328707
373 2.403592
373.5 2.446548
374 2.508134
374.5 2.550365
375 2.621971
375.5 2.689836
376 2.73927
376.5 2.844978
377 2.919018
377.5 2.984192
378 3.056766
378.5 3.143666
379 3.222062
379.5 3.366651
380 3.466719
380.5 3.538054
381 3.632403
381.5 3.766355
382 3.846476
382.5 3.947598
383 4.10085
383.5 4.191156
384 4.309274
384.5 4.403893
385 4.555164
385.5 4.663032
386 4.829727
386.5 4.944174
387 5.045333
387.5 5.205167
388 5.318484
388.5 5.479544
389 5.616741
389.5 5.717228
390 5.896795
390.5 6.048288
391 6.155763
391.5 6.301355
392 6.456206
392.5 6.585275
393 6.768114
393.5 6.84003
394 6.959546
394.5 7.02795
395 7.205357
395.5 7.275135
396 7.397644
396.5 7.506291
397 7.629053
397.5 7.700978
398 7.756478
398.5 7.853358
399 7.939713
399.5 8.00962
400 8.084125
400.5 8.125045
401 8.193334
401.5 8.193195
402 8.291224
402.5 8.300768
403 8.321184
403.5 8.359189
404 8.368595
404.5 8.425407
405 8.420485
405.5 8.447089
406 8.462853
406.5 8.486907
407 8.500896
407.5 8.458845
408 8.473219
408.5 8.449575
409 8.428553
409.5 8.427031
410 8.390833
410.5 8.397602
411 8.382669
411.5 8.391462
412 8.377148
412.5 8.34861
413 8.321115
413.5 8.283041
414 8.305073
414.5 8.273397
415 8.235401
415.5 8.191715
416 8.14819
416.5 8.131472
417 8.105639
417.5 8.093309
418 8.064443
418.5 8.015984
419 7.970811
419.5 7.977483
420 7.883133
420.5 7.870839
421 7.849362
421.5 7.811952
422 7.759149
422.5 7.771417
423 7.707988
423.5 7.681273
424 7.630879
424.5 7.617573
425 7.592786
425.5 7.514925
426 7.537149
426.5 7.495625
427 7.460804
427.5 7.440305
428 7.375506
428.5 7.346055
429 7.329636
429.5 7.289878
430 7.244615
430.5 7.23137
431 7.18213
431.5 7.18578
432 7.121063
432.5 7.110815
433 7.076368
433.5 7.051615
434 7.018276
434.5 6.977151
435 6.960314
435.5 6.909617
436 6.88725
436.5 6.868918
437 6.858198
437.5 6.814846
438 6.782448
438.5 6.743384
439 6.720821
439.5 6.721627
440 6.693763
440.5 6.647792
441 6.640548
441.5 6.613519
442 6.574599
442.5 6.535493
443 6.537621
443.5 6.498682
444 6.480717
444.5 6.442989
445 6.475739
445.5 6.382336
446 6.403399
446.5 6.389126
447 6.352562
447.5 6.301124
448 6.328545
448.5 6.314086
449 6.307789
449.5 6.302311
450 6.249457
450.5 6.252187
451 6.221248
451.5 6.22378
452 6.21608
452.5 6.19687
453 6.199716
453.5 6.172516
454 6.192079
454.5 6.166786
455 6.170954
455.5 6.139531
456 6.171195
456.5 6.115406
457 6.157898
457.5 6.121929
458 6.125592
458.5 6.127832
459 6.072338
459.5 6.082153
460 6.082941
460.5 6.090199
461 6.090102
461.5 6.10105
462 6.100503
462.5 6.086769
463 6.09446
463.5 6.094398
464 6.09693
464.5 6.089259
465 6.092716
465.5 6.074514
466 6.061372
466.5 6.061894
467 6.090618
467.5 6.056821
468 6.072084
468.5 6.070232
469 6.084799
469.5 6.091942
470 6.077257
470.5 6.092987
471 6.077079
471.5 6.079226
472 6.086558
472.5 6.073172
473 6.0828
473.5 6.109482
474 6.096418
474.5 6.109362
475 6.108679
475.5 6.10089
476 6.136404
476.5 6.100021
477 6.125922
477.5 6.149598
478 6.134427
478.5 6.153504
479 6.159424
479.5 6.180086
480 6.167316
480.5 6.193476
481 6.19338
481.5 6.212519
482 6.188947
482.5 6.231023
483 6.227369
483.5 6.259442
484 6.281591
484.5 6.263728
485 6.289854
485.5 6.302083
486 6.323793
486.5 6.326742
487 6.345598
487.5 6.342657
488 6.37482
488.5 6.375736
489 6.401014
489.5 6.41121
490 6.430019
490.5 6.43962
491 6.467167
491.5 6.482376
492 6.477091
492.5 6.502426
493 6.507001
493.5 6.545506
494 6.532004
494.5 6.5584
495 6.57363
495.5 6.583679
496 6.598253
496.5 6.590781
497 6.632388
497.5 6.624956
498 6.650588
498.5 6.659585
499 6.676217
499.5 6.686534
500 6.712291
500.5 6.723059
501 6.707165
501.5 6.732164
502 6.749757
502.5 6.787667
503 6.800522
503.5 6.807923
504 6.807772
504.5 6.837308
505 6.852676
505.5 6.850015
506 6.882142
506.5 6.895209
507 6.913456
507.5 6.925607
508 6.943821
508.5 6.965829
509 6.97185
509.5 7.011475
510 7.009002
510.5 7.030928
511 7.045831
511.5 7.065648
512 7.091397
512.5 7.113195
513 7.121933
513.5 7.139151
514 7.162967
514.5 7.178284
515 7.217773
515.5 7.223755
516 7.235888
516.5 7.257894
517 7.264903
517.5 7.28971
518 7.32254
518.5 7.300957
519 7.343947
519.5 7.377127
520 7.374018
520.5 7.399907
521 7.406217
521.5 7.43403
522 7.45016
522.5 7.474793
523 7.47501
523.5 7.507101
524 7.497995
524.5 7.528038
525 7.542253
525.5 7.55936
526 7.557521
526.5 7.572801
527 7.617257
527.5 7.615682
528 7.635777
528.5 7.636418
529 7.648033
529.5 7.662099
530 7.683435
530.5 7.681152
531 7.701833
531.5 7.716195
532 7.732117
532.5 7.743274
533 7.75092
533.5 7.764807
534 7.778997
534.5 7.797328
535 7.803287
535.5 7.807136
536 7.826553
536.5 7.83238
537 7.853744
537.5 7.855588
538 7.84943
538.5 7.884844
539 7.869778
539.5 7.889312
540 7.89666
540.5 7.921628
541 7.900001
541.5 7.93077
542 7.911454
542.5 7.945305
543 7.958759
543.5 7.947731
544 7.9831
544.5 7.969693
545 7.992622
545.5 7.977464
546 8.008091
546.5 8.010311
547 8.018727
547.5 8.02102
548 8.01783
548.5 8.03186
549 8.036305
549.5 8.043544
550 8.056982
550.5 8.07887
551 8.073416
551.5 8.077717
552 8.072047
552.5 8.059303
553 8.07438
553.5 8.064089
554 8.098046
554.5 8.08385
555 8.107015
555.5 8.094052
556 8.124357
556.5 8.067951
557 8.097985
557.5 8.11128
558 8.116076
558.5 8.104265
559 8.103188
559.5 8.122216
560 8.093685
560.5 8.082599
561 8.108844
561.5 8.117661
562 8.109834
562.5 8.097918
563 8.092735
563.5 8.091191
564 8.093009
564.5 8.089865
565 8.091949
565.5 8.080624
566 8.093757
566.5 8.084947
567 8.077332
567.5 8.089708
568 8.078981
568.5 8.075703
569 8.060734
569.5 8.078434
570 8.055954
570.5 8.072332
571 8.064705
571.5 8.066264
572 8.057199
572.5 8.034402
573 8.06003
573.5 8.030768
574 8.057267
574.5 8.047643
575 8.035435
575.5 8.040577
576 8.057694
576.5 8.041017
577 8.013951
577.5 8.039197
578 8.043672
578.5 8.035581
579 8.010119
579.5 8.02928
580 8.028369
580.5 8.041807
581 8.009654
581.5 8.014985
582 8.032452
582.5 8.01808
583 8.033397
583.5 8.020092
584 8.031854
584.5 8.026253
585 8.027684
585.5 8.045246
586 8.026507
586.5 8.036458
587 8.045777
587.5 8.044752
588 8.037034
588.5 8.045611
589 8.037564
589.5 8.06955
590 8.048301
590.5 8.059938
591 8.07308
591.5 8.063047
592 8.086516
592.5 8.079696
593 8.099284
593.5 8.073919
594 8.117825
594.5 8.099342
595 8.109534
595.5 8.119785
596 8.138668
596.5 8.143318
597 8.151694
597.5 8.14854
598 8.155669
598.5 8.161788
599 8.177794
599.5 8.179997
600 8.17344
600.5 8.195617
601 8.21349
601.5 8.230794
602 8.255622
602.5 8.231735
603 8.253293
603.5 8.269005
604 8.275192
604.5 8.268942
605 8.315376
605.5 8.306589
606 8.346143
606.5 8.339128
607 8.348868
607.5 8.376788
608 8.365144
608.5 8.39932
609 8.395313
609.5 8.415773
610 8.424462
610.5 8.447204
611 8.450799
611.5 8.47527
612 8.484076
612.5 8.486126
613 8.531872
613.5 8.502134
614 8.541143
614.5 8.543426
615 8.572315
615.5 8.568966
616 8.596096
616.5 8.614176
617 8.615195
617.5 8.628788
618 8.65708
618.5 8.657705
619 8.653463
619.5 8.692821
620 8.709704
620.5 8.726015
621 8.730964
621.5 8.755865
622 8.761772
622.5 8.787955
623 8.779119
623.5 8.797619
624 8.842242
624.5 8.84616
625 8.855779
625.5 8.859073
626 8.887837
626.5 8.912706
627 8.919631
627.5 8.935814
628 8.932841
628.5 8.959199
629 8.951147
629.5 8.987916
630 8.981815
630.5 9.003596
631 9.026608
631.5 9.060111
632 9.066187
632.5 9.067447
633 9.103148
633.5 9.101679
634 9.120365
634.5 9.149917
635 9.159759
635.5 9.169275
636 9.195829
636.5 9.209499
637 9.210705
637.5 9.234819
638 9.249324
638.5 9.271204
639 9.269986
639.5 9.288418
640 9.305107
640.5 9.320146
641 9.329703
641.5 9.33676
642 9.360175
642.5 9.37795
643 9.403554
643.5 9.417453
644 9.435559
644.5 9.439825
645 9.470659
645.5 9.475801
646 9.491336
646.5 9.493728
647 9.516801
647.5 9.545687
648 9.562841
648.5 9.577638
649 9.590793
649.5 9.607996
650 9.610511
650.5 9.634431
651 9.652176
651.5 9.655712
652 9.673135
652.5 9.698047
653 9.711381
653.5 9.713899
654 9.753862
654.5 9.750906
655 9.775293
655.5 9.763677
656 9.804215
656.5 9.82173
657 9.816838
657.5 9.833972
658 9.839819
658.5 9.901855
659 9.880459
659.5 9.903207
660 9.925335
660.5 9.92351
661 9.952739
661.5 9.948757
662 9.973694
662.5 9.993102
663 10.011445
663.5 10.007487
664 10.03068
664.5 10.036167
665 10.040278
665.5 10.059834
666 10.085546
666.5 10.072911
667 10.108054
667.5 10.121617
668 10.118853
668.5 10.13634
669 10.142428
669.5 10.182073
670 10.181001
670.5 10.185996
671 10.187729
671.5 10.184095
672 10.229018
672.5 10.226909
673 10.231276
673.5 10.23257
674 10.260078
674.5 10.281456
675 10.288077
675.5 10.295375
676 10.295545
676.5 10.314162
677 10.309219
677.5 10.314404
678 10.354987
678.5 10.33553
679 10.329343
679.5 10.349845
680 10.363538
680.5 10.420509
681 10.384158
681.5 10.392819
682 10.422855
682.5 10.428666
683 10.431037
683.5 10.433459
684 10.447647
684.5 10.458741
685 10.471155
685.5 10.445845
686 10.485415
686.5 10.454589
687 10.483386
687.5 10.498303
688 10.488898
688.5 10.499507
689 10.509438
689.5 10.547238
690 10.520518
690.5 10.569894
691 10.566372
691.5 10.562208
692 10.587664
692.5 10.582518
693 10.579102
693.5 10.594722
694 10.581163
694.5 10.610782
695 10.618551
695.5 10.637543
696 10.63192
696.5 10.638008
697 10.658336
697.5 10.630234
698 10.640935
698.5 10.647037
699 10.660344
699.5 10.666022
700 10.686419
700.5 10.698249
701 10.698936
701.5 10.719393
702 10.695131
702.5 10.715725
703 10.724589
703.5 10.726555
704 10.730755
704.5 10.749543
705 10.743193
705.5 10.749657
706 10.758422
706.5 10.748972
707 10.780407
707.5 10.798623
708 10.781492
708.5 10.767896
709 10.787322
709.5 10.756195
710 10.804085
710.5 10.801363
711 10.814325
711.5 10.824757
712 10.820799
712.5 10.839008
713 10.847958
713.5 10.860912
714 10.848015
714.5 10.837808
715 10.86946
715.5 10.888312
716 10.891541
716.5 10.878058
717 10.834549
717.5 10.878078
718 10.891663
718.5 10.872062
719 10.928981
719.5 10.886335
720 10.925658
720.5 10.946283
721 10.96798
721.5 10.947726
722 10.90871
722.5 10.935889
723 10.958481
723.5 10.975668
724 10.965299
724.5 10.962576
725 10.970431
725.5 10.967809
726 10.995023
726.5 11.000551
727 11.00229
727.5 11.039785
728 11.061766
728.5 11.012934
729 11.03187
729.5 11.023477
730 11.00884
730.5 11.029822
731 11.040978
731.5 11.065395
732 11.042616
732.5 11.074048
733 11.068019
733.5 11.08704
734 11.057239
734.5 11.088648
735 11.091024
735.5 11.100357
736 11.090829
736.5 11.105711
737 11.134767
737.5 11.150801
738 11.139236
738.5 11.165015
739 11.181065
739.5 11.126257
740 11.149846
740.5 11.173072
741 11.150283
741.5 11.157142
742 11.16546
742.5 11.182744
743 11.214459
743.5 11.201083
744 11.133999
744.5 11.187973
745 11.192247
745.5 11.18039
746 11.193542
746.5 11.197986
747 11.199149
747.5 11.201236
748 11.215838
748.5 11.20358
749 11.22284
749.5 11.200376
750 11.21673
750.5 11.234758
751 11.21168
751.5 11.237589
752 11.23027
752.5 11.227319
753 11.239758
753.5 11.265272
754 11.258645
754.5 11.241352
755 11.225024
755.5 11.266695
756 11.25226
756.5 11.256519
757 11.267798
757.5 11.238752
758 11.274045
758.5 11.263926
759 11.250286
759.5 11.289411
760 11.306567
760.5 11.297365
761 11.252254
761.5 11.294436
762 11.284896
762.5 11.307865
763 11.301243
763.5 11.360756
764 11.235557
764.5 11.308127
765 11.308826
765.5 11.29332
766 11.28286
766.5 11.280973
767 11.290734
767.5 11.323428
768 11.332776
768.5 11.268938
769 11.323894
769.5 11.345148
770 11.32388
770.5 11.326895
771 11.354563
771.5 11.312154
772 11.35968
772.5 11.341471
773 11.316147
773.5 11.313823
774 11.322898
774.5 11.350727
775 11.333331
775.5 11.352005
776 11.302935
776.5 11.342078
777 11.338172
777.5 11.325234
778 11.360005
778.5 11.357748
779 11.358734
779.5 11.325492
780 11.352814
780.5 11.334971
781 11.363442
781.5 11.368186
782 11.359826
782.5 11.352752
783 11.349867
783.5 11.297054
784 11.358811
784.5 11.332833
785 11.355234
785.5 11.31035
786 11.333878
786.5 11.352395
787 11.321802
787.5 11.337989
788 11.326164
788.5 11.332176
789 11.368901
789.5 11.32912
790 11.350219
790.5 11.354281
791 11.337057
791.5 11.365636
792 11.314616
792.5 11.335886
793 11.339425
793.5 11.337402
794 11.329284
794.5 11.330036
795 11.351649
795.5 11.358213
796 11.375734
796.5 11.367375
797 11.336368
797.5 11.3414
798 11.337996
798.5 11.302866
799 11.372
799.5 11.365757
800 11.381502
800.5 11.296702
801 11.343535
801.5 11.36782
802 11.358377
802.5 11.300474
803 11.356711
803.5 11.348503
804 11.337969
804.5 11.317241
805 11.355106
805.5 11.312012
806 11.356373
806.5 11.331885
807 11.345188
807.5 11.368889
808 11.298574
808.5 11.312138
809 11.335135
809.5 11.322854
810 11.344141
810.5 11.374567
811 11.348364
811.5 11.296847
812 11.38699
812.5 11.281284
813 11.25934
813.5 11.321344
814 11.307307
814.5 11.235677
815 11.290842
815.5 11.277357
816 11.305878
816.5 11.282877
817 11.299846
817.5 11.256751
818 11.321045
818.5 11.268862
819 11.307143
819.5 11.284841
820 11.239737
820.5 11.308423
821 11.271816
821.5 11.251479
822 11.217164
822.5 11.207698
823 11.156981
823.5 11.232539
824 11.278839
824.5 11.245114
825 11.261018
825.5 11.186817
826 11.201895
826.5 11.175957
827 11.193551
827.5 11.177283
828 11.175556
828.5 11.178418
829 11.194084
829.5 11.121419
830 11.097083
830.5 11.142217
831 11.107087
831.5 11.149219
832 11.097226
832.5 11.064862
833 11.070587
833.5 11.034149
834 11.087698
834.5 11.017671
835 11.041426
835.5 11.018305
836 10.927279
836.5 10.975893
837 10.928205
837.5 10.917548
838 11.004078
838.5 10.978271
839 10.919654
839.5 10.940434
840 10.925546
840.5 10.930862
841 10.893547
841.5 10.853556
842 10.882526
842.5 10.772555
843 10.835332
843.5 10.836811
844 10.851302
844.5 10.814638
845 10.834657
845.5 10.799126
846 10.793649
846.5 10.756987
847 10.734858
847.5 10.697114
848 10.736417
848.5 10.705433
849 10.688218
849.5 10.717978
850 10.717332
850.5 10.721049
851 10.708966
851.5 10.749934
852 10.711551
852.5 10.708608
853 10.619107
853.5 10.685045
854 10.684311
854.5 10.63795
855 10.628266
855.5 10.660138
856 10.691915
856.5 10.629888
857 10.633413
857.5 10.64977
858 10.561494
858.5 10.723004
859 10.665085
859.5 10.614068
860 10.600647
860.5 10.637817
861 7.22803
861.5 7.495085
862 7.371683
862.5 7.39835
863 7.4937
863.5 7.308263
864 7.522009
864.5 7.20147
865 7.518566
865.5 7.369833
866 7.528339
866.5 7.367264
867 7.305353
867.5 7.519202
868 7.255159
868.5 7.520945
869 7.175945
869.5 7.510146
870 7.156181
870.5 7.48628
871 7.316373
871.5 7.418451
872 7.376954
872.5 7.222875
873 7.466735
873.5 7.299982
874 7.475981
874.5 7.185549
875 7.449349
875.5 7.375893
876 7.469776
876.5 7.418032
877 7.339497
877.5 7.587217
878 7.320195
878.5 7.518669
879 7.373582
879.5 7.487215
880 7.368208
880.5 7.46635
881 7.300758
881.5 7.24987
882 7.364342
882.5 7.364596
883 7.420225
883.5 7.23047
884 7.412811
884.5 7.269503
885 7.567944
885.5 7.300887
886 7.50081
886.5 7.379276
887 7.489058
887.5 7.485563
888 7.317644
888.5 7.462697
889 7.327183
889.5 7.478034
890 7.350361
890.5 7.354393
891 7.479968
891.5 7.430962
892 7.427072
892.5 7.19928
893 7.538137
893.5 7.228467
894 7.526197
894.5 7.138839
895 7.433756
895.5 7.254962
896 7.402952
896.5 7.304379
897 7.319818
897.5 7.391584
898 7.253677
898.5 7.498485
899 7.381395
899.5 7.583991
900 7.277074
900.5 7.502794
901 7.373102
901.5 7.38518
902 7.491639
902.5 7.28757
903 7.569573
903.5 7.292493
904 7.482405
904.5 7.24045
905 7.442497
905.5 7.353983
906 7.418476
906.5 7.360957
907 7.276314
907.5 7.447118
908 7.368551
908.5 7.511783
909 7.225016
909.5 7.546423
910 7.328848
910.5 7.50011
911 7.405544
911.5 7.368013
912 7.404973
912.5 7.427356
913 7.43878
913.5 7.28331
914 7.54017
914.5 7.363983
915 7.499752
915.5 7.335704
916 7.366307
916.5 7.402669
917 7.351449
917.5 7.4479
918 7.143398
918.5 7.557279
919 7.188892
919.5 7.551266
920 7.322732
920.5 7.51617
921 7.33815
921.5 7.45097
922 7.370268
922.5 7.346161
923 7.479312
923.5 7.270748
924 7.545377
924.5 7.30608
925 7.39181
925.5 7.414623
926 7.458873
926.5 7.413036
927 7.332066
927.5 7.4818
928 7.23884
928.5 7.45161
929 7.312768
929.5 7.371483
930 7.252856
930.5 7.443494
931 7.392355
931.5 7.350954
932 7.429133
932.5 7.188434
933 7.479993
933.5 7.392806
934 7.437702
934.5 7.223037
935 7.473799
935.5 7.36018
936 7.442228
936.5 7.397142
937 7.428812
937.5 7.500802
938 7.333317
938.5 7.464187
939 7.245403
939.5 7.489426
940 7.375567
940.5 7.441393
941 7.426592
941.5 7.38107
942 7.569101
942.5 7.313906
943 7.486164
943.5 7.159706
944 7.606185
944.5 7.23353
945 7.507157
945.5 7.303029
946 7.472941
946.5 7.38442
947 7.420158
947.5 7.469126
948 7.318767
948.5 7.442117
949 7.245822
949.5 7.479969
950 7.348088
950.5 7.406322
951 7.453662
951.5 7.411048
952 7.486306
952.5 7.382692
953 7.511306
953.5 7.233103
954 7.508305
954.5 7.202174
955 7.433045
955.5 7.256244
956 7.320299
956.5 7.407555
957 7.483886
957.5 7.358402
958 7.159136
958.5 7.467061
959 7.368147
959.5 7.449329
960 7.281207
960.5 7.337017
961 7.402364
961.5 7.34479
962 7.494908
962.5 7.303409
963 7.537182
963.5 7.376246
964 7.495956
964.5 7.308683
965 7.36808
965.5 7.41519
966 7.422437
966.5 7.40114
967 7.220503
967.5 7.490803
968 7.306367
968.5 7.469039
969 7.187862
969.5 7.514012
970 7.244883
970.5 7.400887
971 7.388478
971.5 7.434991
972 7.359344
972.5 7.296551
973 7.445671
973.5 7.306029
974 7.532862
974.5 7.312606
975 7.431424
975.5 7.336923
976 7.383418
976.5 7.378451
977 7.416975
977.5 7.47301
978 7.228506
978.5 7.483263
979 7.182122
979.5 7.431453
980 7.272062
980.5 7.424567
981 7.333433
981.5 7.285795
982 7.45451
982.5 7.32765
983 7.450707
983.5 7.190976
984 7.421281
984.5 7.36442
985 7.474323
985.5 7.248347
986 7.456207
986.5 7.456317
987 7.307096
987.5 7.478947
988 7.290981
988.5 7.48238
989 7.281946
989.5 7.448597
990 7.265218
990.5 7.304662
991 7.516178
991.5 7.307163
992 7.41365
992.5 7.200275
993 7.402496
993.5 7.218397
994 7.544915
994.5 7.258553
995 7.541285
995.5 7.353246
996 7.405393
996.5 7.383331
997 7.352589
997.5 7.506437
998 7.364448
998.5 7.543471
999 7.312621
999.5 7.451471
1000 7.347286
1000.5 7.513168
1001 7.543352
1001.5 7.32867
1002 7.503145
1002.5 7.293864
1003 7.52177
1003.5 7.193356
1004 7.498603
1004.5 7.143068
1005 7.423053
1005.5 7.389498
1006 7.410018
1006.5 7.424132
1007 7.264271
1007.5 7.454301
1008 7.32159
1008.5 7.539014
1009 7.237174
1009.5 7.585154
1010 7.388303
1010.5 7.412641
1011 7.369957
1011.5 7.336534
1012 7.514291
1012.5 7.435515
1013 7.474303
1013.5 7.262206
1014 7.473869
1014.5 7.335816
1015 7.483811
1015.5 7.412524
1016 7.272781
1016.5 7.43638
1017 7.291938
1017.5 7.479345
1018 7.192769
1018.5 7.583753
1019 7.249928
1019.5 7.518142
1020 7.258503
1020.5 7.387678
1021 7.44836
1021.5 7.396233
1022 7.531363
1022.5 7.35781
1023 7.591765
1023.5 7.350678
1024 7.546943
1024.5 7.297919
1025 7.424343
1025.5 7.430936
1026 7.436731
1026.5 7.493296
1027 7.30818
1027.5 7.507649
1028 7.193249
1028.5 7.512309
1029 7.303967
1029.5 7.514192
1030 7.331383
1030.5 7.483564
1031 7.413452
1031.5 7.298052
1032 7.443634
1032.5 7.30907
1033 7.591908
1033.5 7.391405
1034 7.5247
1034.5 7.278214
1035 7.599863
1035.5 7.519083
1036 7.417288
1036.5 7.591682
1037 7.316172
1037.5 7.561944
1038 7.324472
1038.5 7.530954
1039 7.371784
1039.5 7.455652
1040 7.443586
1040.5 7.419379
1041 7.482342
1041.5 7.203227
1042 7.548033
1042.5 7.394981
1043 7.557985
1043.5 7.321344
1044 7.527249
1044.5 7.458534
1045 7.560907
1045.5 7.524744
1046 7.451089
1046.5 7.556712
1047 7.531628
1047.5 7.538489
1048 7.405228
1048.5 7.469831
1049 7.397772
1049.5 7.561004
1050 7.434344
1050.5 7.46572
1051 7.57353
1051.5 7.42887
1052 7.491346
1052.5 7.18585
1053 7.563552
1053.5 7.371583
1054 7.676441
1054.5 7.433404
1055 7.56511
1055.5 7.417036
1056 7.390714
1056.5 7.563131
1057 7.456791
1057.5 7.685978
1058 7.360183
1058.5 7.598839
1059 7.532673
1059.5 7.527188
1060 7.534471
1060.5 7.437018
1061 7.532805
1061.5 7.332354
1062 7.526527
1062.5 7.317482
1063 7.638266
1063.5 7.410102
1064 7.525763
1064.5 7.392085
1065 7.454126
1065.5 7.605945
1066 7.48676
1066.5 7.576916
1067 7.24615
1067.5 7.629878
1068 7.455426
1068.5 7.572938
1069 7.436687
1069.5 7.583512
1070 7.520089
1070.5 7.513783
1071 7.548553
1071.5 7.550509
1072 7.725889
1072.5 7.472727
1073 7.657378
1073.5 7.420909
1074 7.532138
1074.5 7.522204
1075 7.471838
1075.5 7.557465
1076 7.423007
1076.5 7.694297
1077 7.453179
1077.5 7.558045
1078 7.344314
1078.5 7.648028
1079 7.501502
1079.5 7.635289
1080 7.614478
1080.5 7.534341
1081 7.589982
1081.5 7.501554
1082 7.718547
1082.5 7.49114
1083 7.75994
1083.5 7.543294
1084 7.629608
1084.5 7.514502
1085 7.524697
1085.5 7.701661
1086 7.5915
1086.5 7.760406
1087 7.395518
1087.5 7.754047
1088 7.47866
1088.5 7.743584
1089 7.558431
1089.5 7.594611
1090 7.591528
1090.5 7.489204
1091 7.605462
1091.5 7.501642
1092 7.61802
1092.5 7.475942
1093 7.721199
1093.5 7.603361
1094 7.677553
1094.5 7.576634
1095 7.642756
1095.5 7.702473
1096 7.551309
1096.5 7.663103
1097 7.529934
1097.5 7.823727
1098 7.664511
1098.5 7.700017
1099 7.519922
1099.5 7.586713
1100 7.625002
1100.5 7.634226
1101 7.621055
1101.5 7.342291
1102 7.75208
1102.5 7.552669
1103 7.808921
1103.5 7.537308
1104 7.789342
1104.5 7.647648
1105 7.758076
1105.5 7.659511
1106 7.645646
1106.5 7.716554
1107 7.638909
1107.5 7.851771
1108 7.602412
1108.5 7.777376
1109 7.688981
1109.5 7.782532
1110 7.807642
1110.5 7.618967
1111 7.826501
1111.5 7.589831
1112 7.79903
1112.5 7.446989
1113 7.76277
1113.5 7.503998
1114 7.768537
1114.5 7.682657
1115 7.654226
1115.5 7.743995
1116 7.420555
1116.5 7.791147
1117 7.643262
1117.5 7.745758
1118 7.567751
1118.5 7.736085
1119 7.631385
1119.5 7.678452
1120 7.643301
1120.5 7.567017
1121 7.756131
1121.5 7.679266
1122 7.825273
1122.5 7.560852
1123 7.954965
1123.5 7.781754
1124 7.688741
1124.5 7.747549
1125 7.674787
1125.5 7.908744
1126 7.771543
1126.5 7.758223
1127 7.470931
1127.5 7.884786
1128 7.767822
1128.5 7.925476
1129 7.794445
1129.5 7.960244
1130 7.86155
1130.5 7.798631
1131 7.723457
1131.5 7.723011
1132 7.888476
1132.5 7.463816
1133 7.654601
1133.5 7.54147
1134 7.793487
1134.5 7.765663
1135 7.863887
1135.5 7.809988
1136 7.751978
1136.5 7.930417
1137 7.557102
1137.5 7.921877
1138 7.660072
1138.5 7.915923
1139 7.748335
1139.5 7.748432
1140 7.739495
1140.5 7.829158
1141 7.910591
1141.5 7.62445
1142 7.892925
1142.5 7.781587
1143 7.908894
1143.5 7.761853
1144 7.953467
1144.5 7.992148
1145 7.859502
1145.5 7.910309
1146 7.782205
1146.5 8.071911
1147 7.891719
1147.5 8.005616
1148 7.666508
1148.5 7.821205
1149 7.773711
1149.5 7.93373
1150 7.823795
1150.5 7.560176
1151 7.844936
1151.5 7.749487
1152 7.895738
1152.5 7.703731
1153 8.009803
1153.5 7.7243
1154 7.967559
1154.5 7.808497
1155 7.881774
1155.5 7.959569
1156 7.918105
1156.5 7.947186
1157 7.82539
1157.5 8.08695
1158 7.929531
1158.5 7.963114
1159 7.929666
1159.5 7.907082
1160 7.989413
1160.5 7.908282
1161 8.052486
1161.5 7.767142
1162 8.039077
1162.5 7.680862
1163 8.013944
1163.5 7.880583
1164 7.962898
1164.5 7.860123
1165 7.897398
1165.5 8.006361
1166 7.901844
1166.5 8.082286
1167 7.80772
1167.5 8.100593
1168 7.916559
1168.5 8.053919
1169 7.973892
1169.5 8.007693
1170 8.03595
1170.5 7.898974
1171 8.093322
1171.5 7.773333
1172 8.051869
1172.5 7.902607
1173 8.079227
1173.5 7.964312
1174 7.98051
1174.5 8.066772
1175 8.007579
1175.5 8.004211
1176 7.759604
1176.5 8.058473
1177 7.931668
1177.5 8.063778
1178 7.903793
1178.5 8.09793
1179 7.947952
1179.5 8.112076
1180 8.069833
1180.5 7.998431
1181 8.081745
1181.5 7.947645
1182 8.145586
1182.5 7.964694
1183 8.105797
1183.5 7.989907
1184 8.000991
1184.5 8.035792
1185 7.950283
1185.5 8.148275
1186 7.967076
1186.5 8.087139
1187 7.776129
1187.5 8.092911
1188 7.775366
1188.5 8.006643
1189 7.856519
1189.5 7.886831
1190 7.831249
1190.5 8.074136
1191 8.054722
1191.5 8.113552
1192 8.058555
1192.5 8.141979
1193 7.974099
1193.5 8.163262
1194 8.119109
1194.5 8.116943
1195 8.064114
1195.5 8.047307
1196 8.16617
1196.5 8.062987
1197 8.174621
1197.5 7.856499
1198 8.163585
1198.5 7.860028
1199 8.227797
1199.5 8.063301
1200 8.213567
1200.5 8.149757
1201 8.074076
1201.5 8.164246
1202 8.059657
1202.5 8.23847
1203 8.041224
1203.5 8.253054
1204 8.108796
1204.5 8.177742
1205 8.099825
1205.5 8.100167
1206 8.304711
1206.5 8.055957
1207 8.204712
1207.5 8.005361
1208 8.263657
1208.5 8.102165
1209 8.322205
1209.5 8.118326
1210 8.114554
1210.5 8.233725
1211 8.167338
1211.5 8.22305
1212 7.965611
1212.5 8.330137
1213 8.120099
1213.5 8.232003
1214 8.140691
1214.5 8.225268
1215 8.17197
1215.5 8.223219
1216 8.233045
1216.5 8.187512
1217 8.364019
1217.5 8.173358
1218 8.367064
1218.5 8.223867
1219 8.255922
1219.5 8.235881
1220 8.316693
1220.5 8.290581
1221 8.107522
1221.5 8.363238
1222 8.163884
1222.5 8.346462
1223 8.0865
1223.5 8.386333
1224 8.223107
1224.5 8.395771
1225 8.283586
1225.5 8.242668
1226 8.357835
1226.5 8.210468
1227 8.47396
1227.5 8.296476
1228 8.456076
1228.5 8.30372
1229 8.330614
1229.5 8.357719
1230 8.313555
1230.5 8.357964
1231 8.299857
1231.5 8.489399
1232 8.168234
1232.5 8.492164
1233 8.218282
1233.5 8.455112
1234 8.361299
1234.5 8.377341
1235 8.316565
1235.5 8.128431
1236 8.442947
1236.5 8.307733
1237 8.444338
1237.5 8.179262
1238 8.437746
1238.5 8.218053
1239 8.436649
1239.5 8.27186
1240 8.429996
1240.5 8.327277
1241 8.403765
1241.5 8.39054
1242 8.198901
1242.5 8.393929
1243 8.432358
1243.5 8.476113
1244 8.383394
1244.5 8.37892
1245 8.480106
1245.5 8.445711
1246 8.432474
1246.5 8.333309
1247 8.575968
1247.5 8.283606
1248 8.516365
1248.5 8.220245
1249 8.571397
1249.5 8.356565
1250 8.533067
1250.5 8.504021
1251 8.492012
1251.5 8.551896
1252 8.378665
1252.5 8.584987
1253 8.454303
1253.5 8.571487
1254 8.443823
1254.5 8.531861
1255 8.56294
1255.5 8.464547
1256 8.613128
1256.5 8.369143
1257 8.592321
1257.5 8.263384
1258 8.611462
1258.5 8.397073
1259 8.602123
1259.5 8.517322
1260 8.516777
1260.5 8.549768
1261 8.311936
1261.5 8.679912
1262 8.474585
1262.5 8.679374
1263 8.429381
1263.5 8.657593
1264 8.549103
1264.5 8.626307
1265 8.567049
1265.5 8.494657
1266 8.742546
1266.5 8.564561
1267 8.650086
1267.5 8.525947
1268 8.681027
1268.5 8.657268
1269 8.670371
1269.5 8.540744
1270 8.51813
1270.5 8.712216
1271 8.688584
1271.5 8.646981
1272 8.44575
1272.5 8.718812
1273 8.406141
1273.5 8.693226
1274 8.50141
1274.5 8.650377
1275 8.677538
1275.5 8.676312
1276 8.703169
1276.5 8.5962
1277 8.716483
1277.5 8.564841
1278 8.758143
1278.5 8.62027
1279 8.737296
1279.5 8.710592
1280 8.648913
1280.5 8.794459
1281 8.536641
1281.5 8.785931
1282 8.468843
1282.5 8.798278
1283 8.538441
1283.5 8.746151
1284 8.594253
1284.5 8.750457
1285 8.780605
1285.5 8.64374
1286 8.780294
1286.5 8.450929
1287 8.826433
1287.5 8.704484
1288 8.873829
1288.5 8.65953
1289 8.737582
1289.5 8.80755
1290 8.732597
1290.5 8.824565
1291 8.622535
1291.5 8.910602
1292 8.675176
1292.5 8.874709
1293 8.670073
1293.5 8.802303
1294 8.776629
1294.5 8.778093
1295 8.802159
1295.5 8.608557
1296 8.897502
1296.5 8.726288
1297 8.917635
1297.5 8.541911
1298 8.826913
1298.5 8.644141
1299 8.853552
1299.5 8.817382
1300 8.754344
1300.5 8.932412
1301 8.762082
1301.5 8.915973
1302 8.668374
1302.5 8.986013
1303 8.812752
1303.5 8.888783
1304 8.833621
1304.5 8.828574
1305 8.893932
1305.5 8.809835
1306 9.040765
1306.5 8.652993
1307 8.929122
1307.5 8.708793
1308 9.016347
1308.5 8.836667
1309 8.894012
1309.5 8.995379
1310 8.915521
1310.5 9.055825
1311 8.961277
1311.5 9.11311
1312 8.734277
1312.5 8.979428
1313 8.924104
1313.5 8.877624
1314 8.96891
1314.5 8.951737
1315 9.034649
1315.5 8.871852
1316 9.044493
1316.5 8.821411
1317 9.067403
1317.5 8.858281
1318 8.94742
1318.5 8.934484
1319 8.931084
1319.5 9.103549
1320 8.93105
1320.5 8.993676
1321 8.826089
1321.5 9.029707
1322 8.875626
1322.5 9.0668
1323 8.907655
1323.5 9.025346
1324 8.960029
1324.5 9.008012
1325 9.036616
1325.5 8.96772
1326 9.098967
1326.5 9.002733
1327 9.181186
1327.5 8.936043
1328 8.998083
1328.5 9.026764
1329 9.048517
1329.5 8.994507
1330 8.856107
1330.5 9.080876
1331 8.949631
1331.5 9.168169
1332 8.777013
1332.5 9.108906
1333 8.913528
1333.5 9.109996
1334 9.058711
1334.5 9.058315
1335 9.139815
1335.5 8.972435
1336 9.235913
1336.5 9.062538
1337 9.298906
1337.5 9.145902
1338 9.341487
1338.5 9.235588
1339 9.051029
1339.5 9.155033
1340 9.008317
1340.5 9.280557
1341 8.991121
1341.5 9.219531
1342 8.952025
1342.5 9.120493
1343 9.019137
1343.5 9.199214
1344 9.237342
1344.5 9.000503
1345 9.195822
1345.5 9.206392
1346 9.216373
1346.5 8.9272
1347 9.150933
1347.5 9.17234
1348 9.359291
1348.5 9.283584
1349 9.146591
1349.5 9.235617
1350 9.200857
1350.5 9.362354
1351 9.111397
1351.5 9.195399
1352 9.123335
1352.5 9.321576
1353 9.221634
1353.5 9.073596
1354 9.056187
1354.5 9.239107
1355 9.456834
1355.5 9.240675
1356 9.218157
1356.5 8.960804
1357 9.416365
1357.5 9.27647
1358 9.34753
1358.5 9.187874
1359 9.302158
1359.5 9.39404
1360 9.1803
1360.5 9.040669
1361 8.769687
1361.5 9.413199
1362 9.518182
1362.5 9.96306
1363 9.236248
1363.5 8.949034
1364 8.961373
1364.5 9.26916
1365 9.750525
1365.5 9.45621
1366 9.448442
1366.5 8.959992
1367 9.172827
1367.5 9.220298
1368 9.587009
1368.5 9.629046
1369 9.366784
1369.5 9.141025
1370 8.967137
1370.5 9.378933
1371 9.443382
1371.5 9.666049
1372 9.438746
1372.5 9.618835
1373 9.508383
1373.5 9.442857
1374 9.452157
1374.5 9.38013
1375 9.503026
1375.5 9.345739
1376 9.463467
1376.5 9.44825
1377 9.620205
1377.5 9.235449
1378 9.348603
1378.5 9.593681
1379 9.354703
1379.5 9.160602
1380 9.150101
1380.5 9.755012
1381 9.357474
1381.5 9.232792
1382 8.913212
1382.5 9.729737
1383 9.737594
1383.5 9.660911
1384 9.32985
1384.5 9.404097
1385 9.684259
1385.5 9.684729
1386 9.902228
1386.5 9.242588
1387 9.230386
1387.5 9.290178
1388 9.747529
1388.5 9.791569
1389 9.683724
1389.5 9.785847
1390 9.55878
1390.5 9.689153
1391 9.149825
1391.5 9.346904
1392 9.467368
1392.5 9.931815
1393 9.799385
1393.5 9.348274
1394 9.326321
1394.5 9.240247
1395 9.501042
1395.5 9.509134
1396 9.765826
1396.5 9.947813
1397 10.006335
1397.5 9.708395
1398 9.588835
1398.5 9.41541
1399 9.354445
1399.5 9.528
1400 9.344699
1400.5 9.946532
1401 9.79901
1401.5 10.142957
1402 9.755345
1402.5 9.62206
1403 9.646654
1403.5 9.461926
1404 9.393404
1404.5 9.59592
1405 10.210235
1405.5 9.764013
1406 9.544805
1406.5 9.388126
1407 9.893414
1407.5 9.788527
1408 9.569643
1408.5 9.501194
1409 9.713632
1409.5 10.137405
1410 9.7818
1410.5 9.790675
1411 9.617858
1411.5 9.87227
1412 9.784305
1412.5 9.758212
1413 9.430639
1413.5 9.4396
1414 9.802873
1414.5 9.82324
1415 10.04081
1415.5 9.69023
1416 9.891098
1416.5 9.529736
1417 9.84709
1417.5 9.62626
1418 9.612981
1418.5 9.707182
1419 9.83711
1419.5 10.06408
1420 9.962111
1420.5 10.063875
1421 9.792838
1421.5 9.87867
1422 9.649353
1422.5 9.705647
1423 9.971242
1423.5 9.943903
1424 10.132912
1424.5 9.7698
1425 9.953266
1425.5 9.746289
1426 9.933969
1426.5 9.757975
1427 9.803402
1427.5 9.884408
1428 9.856354
1428.5 10.049044
1429 9.866589
1429.5 9.910945
1430 9.639344
1430.5 9.864592
1431 9.796745
1431.5 10.142568
1432 10.052376
1432.5 9.966664
1433 9.865458
1433.5 9.95686
1434 10.165043
1434.5 9.996387
1435 10.045227
1435.5 9.755044
1436 9.89747
1436.5 9.830362
1437 9.846337
1437.5 9.99965
1438 10.021745
1438.5 10.00682
1439 9.83115
1439.5 10.061075
1440 9.672705
1440.5 10.00227
1441 9.874504
1441.5 10.1373
1442 10.05997
1442.5 10.194158
1443 10.143266
1443.5 10.024709
1444 9.941822
1444.5 9.735233
1445 10.071167
1445.5 10.116222
1446 10.266437
1446.5 10.084791
1447 10.151882
1447.5 10.182562
1448 10.004614
1448.5 10.213853
1449 9.815546
1449.5 10.010558
1450 9.894723
1450.5 10.274386
1451 10.003036
1451.5 10.289014
1452 10.271325
1452.5 10.297222
1453 10.265776
1453.5 9.952902
1454 10.16792
1454.5 10.185638
1455 10.276456
1455.5 10.062811
1456 10.216431
1456.5 10.068633
1457 10.110728
1457.5 10.151221
1458 10.033809
1458.5 10.218886
1459 10.068755
1459.5 10.213248
1460 10.119495
1460.5 10.295539
1461 10.203703
1461.5 10.234725
1462 10.216621
1462.5 10.134196
1463 10.367317
1463.5 10.217703
1464 10.215408
1464.5 10.040112
1465 10.342243
1465.5 10.157088
1466 10.414013
1466.5 10.305547
1467 10.428549
1467.5 10.38947
1468 10.28046
1468.5 10.167604
1469 10.209716
1469.5 10.417248
1470 10.165513
1470.5 10.42226
1471 10.357085
1471.5 10.38896
1472 10.408644
1472.5 10.374093
1473 10.467549
1473.5 10.185569
1474 10.349459
1474.5 10.084718
1475 10.413259
1475.5 10.252938
1476 10.314627
1476.5 10.248975
1477 10.365458
1477.5 10.467711
1478 10.318872
1478.5 10.445642
1479 10.185983
1479.5 10.538601
1480 10.428445
1480.5 10.541748
1481 10.444709
1481.5 10.63082
1482 10.557128
1482.5 10.521867
1483 10.553175
1483.5 10.458589
1484 10.597343
1484.5 10.485443
1485 10.515836
1485.5 10.343037
1486 10.484945
1486.5 10.597283
1487 10.509954
1487.5 10.404047
1488 10.367951
1488.5 10.573123
1489 10.28759
1489.5 10.669135
1490 10.379627
1490.5 10.640296
1491 10.419796
1491.5 10.589954
1492 10.496952
1492.5 10.554411
1493 10.518983
1493.5 10.382302
1494 10.62272
1494.5 10.472872
1495 10.626765
1495.5 10.526279
1496 10.747158
1496.5 10.652018
1497 10.547616
1497.5 10.761776
1498 10.537066
1498.5 10.813899
1499 10.592112
1499.5 10.849818
1500 10.544622
1500.5 10.862788
1501 10.656475
1501.5 10.670653
1502 10.672156
1502.5 10.502134
1503 10.687555
1503.5 10.648321
1504 10.826292
1504.5 10.50526
1505 10.796868
1505.5 10.702126
1506 10.722502
1506.5 10.674313
1507 10.578986
1507.5 10.807017
1508 10.669786
1508.5 10.883895
1509 10.650097
1509.5 10.859054
1510 10.727225
1510.5 10.862878
1511 10.772091
1511.5 10.78925
1512 10.833828
1512.5 10.820299
1513 10.811544
1513.5 10.561406
1514 10.877109
1514.5 10.693473
1515 10.851453
1515.5 10.708891
1516 10.808182
1516.5 10.805189
1517 10.796347
1517.5 10.872768
1518 10.769451
1518.5 10.943127
1519 10.752589
1519.5 11.011807
1520 10.82935
1520.5 10.912111
1521 10.917078
1521.5 11.014514
1522 11.125038
1522.5 10.863645
1523 11.112926
1523.5 10.742202
1524 10.983679
1524.5 10.704307
1525 11.0302
1525.5 10.782477
1526 10.976699
1526.5 10.969828
1527 10.880605
1527.5 10.990898
1528 10.803074
1528.5 11.067016
1529 10.857242
1529.5 11.116686
1530 10.889379
1530.5 11.065975
1531 11.023318
1531.5 11.015774
1532 11.199763
1532.5 10.92352
1533 11.207356
1533.5 10.954879
1534 11.203938
1534.5 10.993499
1535 11.133603
1535.5 11.062508
1536 11.077074
1536.5 11.021405
1537 10.830703
1537.5 11.173108
1538 11.078031
1538.5 11.150071
1539 10.938894
1539.5 11.10377
1540 11.005361
1540.5 11.176697
1541 11.100943
1541.5 11.105815
1542 11.187705
1542.5 11.046723
1543 11.297308
1543.5 11.101589
1544 11.310278
1544.5 11.20259
1545 11.298723
1545.5 11.174787
1546 11.087012
1546.5 11.183403
1547 11.135358
1547.5 11.188478
1548 10.961424
1548.5 11.358779
1549 11.090211
1549.5 11.294395
1550 11.095241
1550.5 11.217189
1551 11.320325
1551.5 11.217292
1552 11.30721
1552.5 11.23836
1553 11.497939
1553.5 11.143539
1554 11.468159
1554.5 11.413746
1555 11.375651
1555.5 11.2701
1556 11.310943
1556.5 11.492565
1557 11.127008
1557.5 11.446352
1558 11.111186
1558.5 11.394193
1559 11.180294
1559.5 11.33349
1560 11.18829
1560.5 11.292154
1561 11.415748
1561.5 11.307877
1562 11.403734
1562.5 11.191569
1563 11.434547
1563.5 11.395628
1564 11.537713
1564.5 11.396217
1565 11.586844
1565.5 11.487504
1566 11.578166
1566.5 11.561169
1567 11.339319
1567.5 11.607494
1568 11.418901
1568.5 11.478077
1569 11.416367
1569.5 11.491313
1570 11.464147
1570.5 11.514181
1571 11.495688
1571.5 11.280797
1572 11.540666
1572.5 11.430299
1573 11.645374
1573.5 11.394233
1574 11.593223
1574.5 11.508565
1575 11.650348
1575.5 11.601623
1576 11.542055
1576.5 11.59098
1577 11.494961
1577.5 11.615665
1578 11.482155
1578.5 11.582732
1579 11.54049
1579.5 11.591239
1580 11.595973
1580.5 11.523819
1581 11.703144
1581.5 11.565079
1582 11.740819
1582.5 11.483669
1583 11.758246
1583.5 11.628266
1584 11.829201
1584.5 11.693545
1585 11.706912
1585.5 11.667871
1586 11.534324
1586.5 11.706714
1587 11.534211
1587.5 11.728377
1588 11.568428
1588.5 11.819928
1589 11.69366
1589.5 11.717003
1590 11.682877
1590.5 11.647168
1591 11.85486
1591.5 11.586077
1592 11.84353
1592.5 11.64367
1593 11.881122
1593.5 11.707886
1594 11.803227
1594.5 11.809582
1595 11.831077
1595.5 12.039834
1596 11.913683
1596.5 12.013539
1597 11.576502
1597.5 11.905016
1598 11.726443
1598.5 11.937269
1599 11.768153
1599.5 11.929955
1600 11.8094
1600.5 11.856486
1601 11.937986
1601.5 11.811664
1602 12.016322
1602.5 11.78664
1603 11.891255
1603.5 11.821621
1604 11.858743
1604.5 11.942093
1605 11.963035
1605.5 11.948565
1606 11.844048
1606.5 12.085046
1607 11.798587
1607.5 12.095141
1608 11.892762
1608.5 12.168279
1609 12.020581
1609.5 12.222996
1610 12.208372
1610.5 12.097862
1611 12.036396
1611.5 11.859244
1612 12.111238
1612.5 11.912995
1613 12.125394
1613.5 11.949632
1614 12.149256
1614.5 12.129928
1615 11.984213
1615.5 12.088234
1616 11.963562
1616.5 12.245335
1617 12.030858
1617.5 12.170981
1618 11.930332
1618.5 12.214167
1619 12.188597
1619.5 12.172422
1620 12.185124
1620.5 12.024108
1621 12.370471
1621.5 12.116823
1622 12.192471
1622.5 12.000317
1623 12.222931
1623.5 12.106008
1624 12.185565
1624.5 12.182284
1625 12.100927
1625.5 12.246279
1626 12.229641
1626.5 12.333203
1627 12.118954
1627.5 12.360831
1628 12.155334
1628.5 12.218944
1629 12.203279
1629.5 12.201328
1630 12.419856
1630.5 12.300155
1631 12.419166
1631.5 12.20523
1632 12.557012
1632.5 12.117801
1633 12.31027
1633.5 12.143423
1634 12.283807
1634.5 12.309805
1635 12.36525
1635.5 12.35742
1636 12.282378
1636.5 12.39663
1637 12.234041
1637.5 12.428288
1638 12.282955
1638.5 12.426586
1639 12.420113
1639.5 12.425367
1640 12.549976
1640.5 12.269368
1641 12.557377
1641.5 12.256873
1642 12.570277
1642.5 12.364314
1643 12.617935
1643.5 12.320716
1644 12.434747
1644.5 12.455142
1645 12.448587
1645.5 12.479394
1646 12.263248
1646.5 12.553719
1647 12.479468
1647.5 12.531126
1648 12.386812
1648.5 12.532239
1649 12.568371
1649.5 12.496856
1650 12.638372
1650.5 12.474029
1651 12.655997
1651.5 12.511592
1652 12.619399
1652.5 12.546869
1653 12.634076
1653.5 12.674044
1654 12.786612
1654.5 12.794673
1655 12.584616
1655.5 12.711477
1656 12.47052
1656.5 12.646326
1657 12.378599
1657.5 12.684672
1658 12.467857
1658.5 12.703466
1659 12.627961
1659.5 12.702803
1660 12.644766
1660.5 12.626189
1661 12.829006
1661.5 12.700303
1662 12.925225
1662.5 12.711602
1663 12.893803
1663.5 12.780501
1664 12.555699
1664.5 12.799931
1665 12.600629
1665.5 12.836856
1666 12.460792
1666.5 12.803614
1667 12.412226
1667.5 12.797391
1668 12.621559
1668.5 12.716173
1669 12.691535
1669.5 12.56606
1670 12.664925
1670.5 12.956606
1671 12.805879
1671.5 12.989023
1672 12.937883
1672.5 12.713102
1673 12.909584
1673.5 12.803456
1674 12.901649
1674.5 12.598521
1675 12.933865
1675.5 12.773977
1676 12.903951
1676.5 12.901022
1677 12.93038
1677.5 12.966464
1678 12.835604
1678.5 12.948148
1679 12.831248
1679.5 13.016565
1680 12.770751
1680.5 12.945618
1681 12.861274
1681.5 12.954472
1682 12.987502
1682.5 13.066041
1683 13.178191
1683.5 12.803966
1684 13.03657
1684.5 12.775613
1685 13.092142
1685.5 12.749739
1686 12.950581
1686.5 12.901947
1687 13.15041
1687.5 13.093223
1688 13.035689
1688.5 13.201094
1689 12.989549
1689.5 13.120995
1690 12.95289
1690.5 13.057379
1691 12.955481
1691.5 13.07251
1692 13.048057
1692.5 12.987112
1693 13.201228
1693.5 12.977917
1694 13.279925
1694.5 13.03584
1695 13.295802
1695.5 12.939148
1696 13.068323
1696.5 13.144194
1697 13.073719
1697.5 13.115466
1698 12.896463
1698.5 13.190289
1699 13.108172
1699.5 13.256261
1700 13.045965
1700.5 13.281755
1701 13.218108
1701.5 13.174768
1702 13.324183
1702.5 13.243388
1703 13.404551
1703.5 13.13252
1704 13.298818
1704.5 13.092202
1705 13.270478
1705.5 13.178642
1706 13.220747
1706.5 13.189973
1707 13.085642
1707.5 13.320912
1708 13.271388
1708.5 13.399841
1709 13.065518
1709.5 13.444929
1710 13.22313
1710.5 13.327417
1711 13.328491
1711.5 13.420664
1712 13.452138
1712.5 13.484955
1713 13.559677
1713.5 13.389978
1714 13.55942
1714.5 13.33448
1715 13.432327
1715.5 13.340351
1716 13.384078
1716.5 13.472091
1717 13.340832
1717.5 13.484269
1718 13.250065
1718.5 13.554858
1719 13.239531
1719.5 13.546026
1720 13.432978
1720.5 13.487628
1721 13.470754
1721.5 13.403353
1722 13.530327
1722.5 13.433845
1723 13.532512
1723.5 13.315812
1724 13.690498
1724.5 13.607821
1725 13.688153
1725.5 13.602614
1726 13.690135
1726.5 13.742819
1727 13.58704
1727.5 13.813207
1728 13.49048
1728.5 13.744475
1729 13.60632
1729.5 13.618203
1730 13.455027
1730.5 13.58674
1731 13.634132
1731.5 13.645585
1732 13.714808
1732.5 13.4543
1733 13.74163
1733.5 13.54381
1734 13.752067
1734.5 13.566968
1735 13.733684
1735.5 13.62654
1736 13.771766
1736.5 13.69915
1737 13.58237
1737.5 13.787062
1738 13.680601
1738.5 13.83353
1739 13.656315
1739.5 13.753229
1740 13.742228
1740.5 13.798599
1741 13.790905
1741.5 13.673331
1742 13.846469
1742.5 13.579254
1743 13.88721
1743.5 13.560763
1744 13.878338
1744.5 13.600074
1745 13.835743
1745.5 13.789831
1746 13.885115
1746.5 13.940345
1747 13.811274
1747.5 14.011808
1748 13.817067
1748.5 14.009871
1749 13.801721
1749.5 13.948746
1750 13.905661
1750.5 13.940978
1751 14.05606
1751.5 13.860217
1752 14.142042
1752.5 13.875595
1753 14.169839
1753.5 13.909197
1754 14.202812
1754.5 13.964175
1755 14.057365
1755.5 13.908546
1756 13.820828
1756.5 14.020856
1757 13.960129
1757.5 14.112461
1758 13.837171
1758.5 14.048786
1759 14.013448
1759.5 14.085233
1760 14.00681
1760.5 14.062519
1761 14.151695
1761.5 14.052759
1762 14.178447
1762.5 13.946809
1763 14.149193
1763.5 14.087673
1764 14.108877
1764.5 14.037377
1765 14.143638
1765.5 14.206755
1766 14.181131
1766.5 14.247698
1767 14.022255
1767.5 14.337966
1768 14.144714
1768.5 14.379559
1769 14.166978
1769.5 14.410315
1770 14.308019
1770.5 14.282951
1771 14.207566
1771.5 14.115058
1772 14.30763
1772.5 14.21909
1773 14.379112
1773.5 14.186485
1774 14.271763
1774.5 14.292093
1775 14.244577
1775.5 14.19678
1776 14.085032
1776.5 14.272456
1777 14.076665
1777.5 14.381142
1778 14.089449
1778.5 14.318006
1779 14.290054
1779.5 14.502838
1780 14.313103
1780.5 14.252795
1781 14.347278
1781.5 14.203741
1782 14.548466
1782.5 14.324893
1783 14.472491
1783.5 14.323363
1784 14.486837
1784.5 14.476991
1785 14.470476
1785.5 14.55621
1786 14.416747
1786.5 14.641236
1787 14.458212
1787.5 14.607146
1788 14.369313
1788.5 14.605993
1789 14.490961
1789.5 14.638695
1790 14.515795
1790.5 14.399473
1791 14.687529
1791.5 14.543419
1792 14.647314
1792.5 14.398514
1793 14.628866
1793.5 14.513785
1794 14.802015
1794.5 14.678316
1795 14.697345
1795.5 14.707012
1796 14.630307
1796.5 14.781417
1797 14.574461
1797.5 14.675815
1798 14.481828
1798.5 14.62132
1799 14.401998
1799.5 14.552055
1800 14.662939
1800.5 14.783554
1801 14.782415
1801.5 14.641842
1802 14.898425
1802.5 14.532281
1803 15.005489
1803.5 14.714536
1804 14.79356
1804.5 14.553641
1805 14.545521
1805.5 14.834855
1806 14.800408
1806.5 15.066366
1807 14.703642
1807.5 14.93994
1808 14.771725
1808.5 14.83226
1809 14.720674
1809.5 14.684823
1810 14.704308
1810.5 14.770159
1811 14.995071
1811.5 14.792827
1812 15.081982
1812.5 14.95043
1813 15.047292
1813.5 14.756371
1814 14.792316
1814.5 14.815709
1815 14.923419
1815.5 15.108994
1816 15.021142
1816.5 15.18008
1817 14.841667
1817.5 14.987399
1818 14.780998
1818.5 14.874701
1819 14.637093
1819.5 14.725018
1820 14.894448
1820.5 15.090726
1821 15.195267
1821.5 15.200321
1822 15.343568
1822.5 15.237635
1823 15.372913
1823.5 15.153576
1824 15.104702
1824.5 14.732338
1825 14.656486
1825.5 15.057114
1826 15.20056
1826.5 15.420724
1827 14.972989
1827.5 15.097496
1828 14.773382
1828.5 15.168245
1829 15.005967
1829.5 14.981087
1830 15.120013
1830.5 15.120718
1831 15.470858
1831.5 15.31641
1832 15.539728
1832.5 15.248708
1833 15.371954
1833.5 15.165249
1834 15.06424
1834.5 15.018542
1835 15.034933
1835.5 15.111794
1836 15.114038
1836.5 15.461794
1837 15.189317
1837.5 15.651262
1838 15.183681
1838.5 15.25704
1839 15.154952
1839.5 14.987402
1840 15.130734
1840.5 14.978734
1841 15.330712
1841.5 15.174612
1842 15.637784
1842.5 15.737516
1843 15.734778
1843.5 15.52844
1844 15.52491
1844.5 15.37845
1845 15.194477
1845.5 15.28127
1846 14.974147
1846.5 14.993913
1847 15.183318
1847.5 15.583612
1848 15.56465
1848.5 15.820205
1849 15.632688
1849.5 15.615059
1850 15.689965
1850.5 15.341066
1851 15.531097
1851.5 15.230139
1852 15.164262
1852.5 15.201262
1853 15.497872
1853.5 15.58052
1854 15.879914
1854.5 15.544505
1855 15.35162
1855.5 15.386857
1856 15.472822
1856.5 15.919675
1857 15.700367
1857.5 15.720859
1858 15.392278
1858.5 15.296428
1859 15.397978
1859.5 15.558861
1860 15.866885
1860.5 15.747054
1861 16.149621
1861.5 15.548918
1862 15.734673
1862.5 15.376282
1863 15.561812
1863.5 15.623821
1864 15.905446
1864.5 15.974411
1865 15.700457
1865.5 15.725292
1866 15.417701
1866.5 15.639313
1867 15.469265
1867.5 15.770648
1868 15.87739
1868.5 15.656179
1869 15.553872
1869.5 15.532683
1870 15.789829
1870.5 15.571335
1871 15.88072
1871.5 15.583786
1872 15.808558
1872.5 15.872994
1873 15.891936
1873.5 15.957533
1874 15.899226
1874.5 15.930733
1875 15.673952
1875.5 15.833364
1876 15.598027
1876.5 15.950678
1877 15.908594
1877.5 16.171561
1878 16.085312
1878.5 16.011783
1879 15.882795
1879.5 15.910478
1880 15.948984
1880.5 15.917183
1881 16.124274
1881.5 15.818246
1882 15.882902
1882.5 15.771537
1883 15.705721
1883.5 15.870075
1884 16.117047
1884.5 16.050646
1885 15.97718
1885.5 16.223381
1886 15.995878
1886.5 16.299319
1887 15.807314
1887.5 16.058685
1888 15.814155
1888.5 15.928568
1889 15.802839
1889.5 15.801184
1890 16.281384
1890.5 16.058038
1891 16.29535
1891.5 16.046575
1892 16.276419
1892.5 16.167538
1893 16.337007
1893.5 16.349012
1894 16.23968
1894.5 16.516137
1895 16.193479
1895.5 16.329353
1896 16.013491
1896.5 16.170231
1897 15.938444
1897.5 16.064738
1898 15.997945
1898.5 15.93022
1899 16.220807
1899.5 16.10305
1900 16.564335
1900.5 16.481769
1901 16.406606
1901.5 16.114582
1902 16.27546
1902.5 16.217472
1903 16.194156
1903.5 16.089182
1904 16.023931
1904.5 16.152778
1905 16.187826
1905.5 16.379595
1906 16.293722
1906.5 16.665445
1907 16.56397
1907.5 16.662705
1908 16.500612
1908.5 16.33535
1909 16.445722
1909.5 16.280378
1910 16.393171
1910.5 16.145329
1911 16.321655
1911.5 16.072245
1912 16.283563
1912.5 16.131416
1913 16.476919
1913.5 16.529164
1914 16.544034
1914.5 16.707736
1915 16.562918
1915.5 16.772728
1916 16.577883
1916.5 16.782644
1917 16.494513
1917.5 16.480456
1918 16.438244
1918.5 16.269352
1919 16.239542
1919.5 16.166794
1920 16.640097
1920.5 16.57542
1921 16.960013
1921.5 16.59476
1922 16.664435
1922.5 16.528867
1923 16.498488
1923.5 16.553466
1924 16.429578
1924.5 16.575941
1925 16.381672
1925.5 16.58155
1926 16.414982
1926.5 16.623427
1927 16.629939
1927.5 16.677123
1928 16.728437
1928.5 16.611655
1929 16.868922
1929.5 16.606256
1930 16.836487
1930.5 16.652074
1931 16.762125
1931.5 16.624616
1932 16.748281
1932.5 16.754168
1933 16.676986
1933.5 16.841076
1934 16.690898
1934.5 16.971309
1935 16.660786
1935.5 16.782671
1936 16.632842
1936.5 16.825193
1937 16.769664
1937.5 16.838309
1938 16.85776
1938.5 16.768023
1939 16.882157
1939.5 16.799168
1940 16.970989
1940.5 16.824859
1941 16.984937
1941.5 16.838709
1942 16.953163
1942.5 16.917548
1943 16.771936
1943.5 16.976285
1944 16.730638
1944.5 17.015141
1945 16.653179
1945.5 16.978398
1946 16.671088
1946.5 17.028119
1947 16.990036
1947.5 17.013076
1948 17.106017
1948.5 16.924347
1949 17.010626
1949.5 16.921639
1950 17.186759
1950.5 16.994286
1951 17.217708
1951.5 17.05102
1952 16.983046
1952.5 17.032658
1953 16.95334
1953.5 17.260632
1954 16.988958
1954.5 17.184323
1955 16.945773
1955.5 17.170314
1956 17.082234
1956.5 17.17279
1957 17.084475
1957.5 16.994938
1958 17.223796
1958.5 17.0763
1959 17.280029
1959.5 17.043835
1960 17.336603
1960.5 17.170922
1961 17.222948
1961.5 17.140463
1962 17.201927
1962.5 17.327011
1963 17.219254
1963.5 17.390937
1964 17.148151
1964.5 17.332606
1965 17.181124
1965.5 17.305477
1966 17.213193
1966.5 17.256305
1967 17.348354
1967.5 17.296343
1968 17.354318
1968.5 17.038994
1969 17.390174
1969.5 17.173479
1970 17.467317
1970.5 17.254765
1971 17.39469
1971.5 17.323381
1972 17.392816
1972.5 17.404799
1973 17.301467
1973.5 17.474711
1974 17.268208
1974.5 17.437282
1975 17.356531
1975.5 17.523612
1976 17.487639
1976.5 17.469734
1977 17.617898
1977.5 17.366591
1978 17.553155
1978.5 17.323233
1979 17.575288
1979.5 17.273578
1980 17.532735
1980.5 17.465127
1981 17.455055
1981.5 17.494237
1982 17.41599
1982.5 17.582424
1983 17.373574
1983.5 17.681222
1984 17.629817
1984.5 17.736116
1985 17.497075
1985.5 17.664354
1986 17.646991
1986.5 17.503899
1987 17.762937
1987.5 17.546102
1988 17.700735
1988.5 17.524004
1989 17.786098
1989.5 17.626686
1990 17.757496
1990.5 17.745495
1991 17.686027
1991.5 17.737392
1992 17.51916
1992.5 17.910922
1993 17.696606
1993.5 17.793179
1994 17.5909
1994.5 17.831747
1995 17.666848
1995.5 17.770906
1996 17.795497
1996.5 17.814204
1997 17.879122
1997.5 17.781731
1998 17.872216
1998.5 17.760678
1999 17.906281
1999.5 17.758018
2000 17.876831
2000.5 17.746918
2001 17.710066
2001.5 17.845172
2002 17.741287
2002.5 17.975177
2003 17.656778
2003.5 17.952114
2004 17.697145
2004.5 17.995228
2005 17.860183
2005.5 17.886584
2006 17.884085
2006.5 17.923819
2007 17.996477
2007.5 17.871626
2008 18.044686
2008.5 17.827509
2009 17.983426
2009.5 17.878221
2010 17.932215
2010.5 17.927541
2011 17.896146
2011.5 18.038294
2012 17.815103
2012.5 18.035643
2013 17.819311
2013.5 18.037607
2014 17.989479
2014.5 18.068336
2015 18.016596
2015.5 17.967953
2016 18.1123
2016.5 17.97553
2017 18.136102
2017.5 17.958282
2018 18.297061
2018.5 18.190554
2019 18.237987
2019.5 18.215039
2020 18.28887
2020.5 18.406506
2021 18.061171
2021.5 18.238449
2022 18.016446
2022.5 18.293665
2023 18.064073
2023.5 18.139908
2024 18.107045
2024.5 18.191014
2025 18.174149
2025.5 18.217237
2026 18.212163
2026.5 18.058507
2027 18.421879
2027.5 18.170878
2028 18.434872
2028.5 18.206424
2029 18.415827
2029.5 18.314213
2030 18.324767
2030.5 18.293266
2031 18.250206
2031.5 18.347713
2032 18.264654
2032.5 18.498828
2033 18.277347
2033.5 18.464829
2034 18.451987
2034.5 18.404955
2035 18.288004
2035.5 18.227358
2036 18.40924
2036.5 18.347876
2037 18.595698
2037.5 18.206595
2038 18.508087
2038.5 18.320026
2039 18.637367
2039.5 18.533246
2040 18.345815
2040.5 18.480803
2041 18.312423
2041.5 18.461131
2042 18.386444
2042.5 18.596691
2043 18.419428
2043.5 18.692252
2044 18.610264
2044.5 18.682416
2045 18.535502
2045.5 18.405265
2046 18.757887
2046.5 18.504192
2047 18.671675
2047.5 18.427159
2048 18.707024
2048.5 18.604904
2049 18.767993
2049.5 18.621193
2050 18.450011
2050.5 18.674496
2051 18.638825
2051.5 18.749838
2052 18.48014
2052.5 18.812186
2053 18.617611
2053.5 18.73879
2054 18.524359
2054.5 18.704687
2055 18.673289
2055.5 18.693884
2056 18.87463
2056.5 18.755506
2057 19.023015
2057.5 18.71739
2058 18.882796
2058.5 18.675669
2059 18.705207
2059.5 18.828966
2060 18.823941
2060.5 18.884642
2061 18.711486
2061.5 18.978864
2062 18.565483
2062.5 18.91221
2063 18.725193
2063.5 18.987966
2064 18.798372
2064.5 18.801834
2065 18.848263
2065.5 18.780686
2066 18.956305
2066.5 18.752958
2067 19.088465
2067.5 18.882449
2068 19.124624
2068.5 18.796001
2069 18.947999
2069.5 18.981948
2070 18.914475
2070.5 19.055629
2071 18.791239
2071.5 19.098704
2072 18.837948
2072.5 19.094703
2073 18.932228
2073.5 19.041644
2074 19.049333
2074.5 19.047637
2075 19.105707
2075.5 18.997978
2076 19.274825
2076.5 19.152485
2077 19.103625
2077.5 18.880667
2078 19.155425
2078.5 19.036955
2079 19.19446
2079.5 19.204567
2080 19.09883
2080.5 19.158427
2081 19.092321
2081.5 19.327976
2082 19.031306
2082.5 19.254971
2083 19.18512
2083.5 19.338973
2084 19.210303
2084.5 19.176982
2085 19.225727
2085.5 19.236377
2086 19.28812
2086.5 19.084729
2087 19.471779
2087.5 18.937212
2088 19.304222
2088.5 19.185282
2089 19.222969
2089.5 19.253138
2090 19.143507
2090.5 19.359522
2091 19.268389
2091.5 19.528639
2092 19.279388
2092.5 19.489311
2093 19.292012
2093.5 19.41901
2094 19.356191
2094.5 19.383457
2095 19.540685
2095.5 19.413255
2096 19.544415
2096.5 19.243681
2097 19.515166
2097.5 19.222607
2098 19.413026
2098.5 19.342211
2099 19.389987
2099.5 19.495791
2100 19.466819
2100.5 19.595097
2101 19.332728
2101.5 19.534074
2102 19.381149
2102.5 19.484168
2103 19.370852
2103.5 19.510393
2104 19.557227
2104.5 19.579124
2105 19.626449
2105.5 19.499761
2106 19.835158
2106.5 19.619405
2107 19.69862
2107.5 19.50902
2108 19.611032
2108.5 19.536515
2109 19.696116
2109.5 19.678681
2110 19.518474
2110.5 19.822283
2111 19.593735
2111.5 19.83722
2112 19.43655
2112.5 19.743097
2113 19.565459
2113.5 19.811238
2114 19.752783
2114.5 19.726916
2115 19.715735
2115.5 19.682142
2116 19.762985
2116.5 19.622585
2117 19.923665
2117.5 19.679826
2118 19.857988
2118.5 19.831081
2119 19.793527
2119.5 20.024073
2120 19.767676
2120.5 19.947669
2121 19.542606
2121.5 19.900477
2122 19.628158
2122.5 19.926342
2123 19.821076
2123.5 19.882143
2124 19.960153
2124.5 19.819731
2125 20.119663
2125.5 19.826168
2126 19.878139
2126.5 19.741769
2127 19.943354
2127.5 19.890513
2128 19.976287
2128.5 19.960208
2129 19.992194
2129.5 20.254365
2130 20.037264
2130.5 20.304184
2131 19.917381
2131.5 20.060959
2132 19.948931
2132.5 20.115781
2133 19.965456
2133.5 19.94305
2134 20.210604
2134.5 20.155957
2135 20.123939
2135.5 19.79593
2136 20.11721
2136.5 19.923101
2137 20.172131
2137.5 19.955289
2138 20.167497
2138.5 20.15311
2139 20.324415
2139.5 20.258993
2140 20.238189
2140.5 20.380209
2141 19.960816
2141.5 20.212972
2142 20.083383
2142.5 20.19199
2143 20.190315
2143.5 20.249361
2144 20.265937
2144.5 20.126791
2145 20.37077
2145.5 20.127526
2146 20.453238
2146.5 20.205097
2147 20.449173
2147.5 20.196658
2148 20.322098
2148.5 20.346592
2149 20.236552
2149.5 20.316555
2150 20.120548
2150.5 20.438492
2151 20.395887
2151.5 20.513037
2152 20.343073
2152.5 20.554447
2153 20.476213
2153.5 20.44639
2154 20.464878
2154.5 20.237353
2155 20.559932
2155.5 20.370713
2156 20.539366
2156.5 20.351873
2157 20.544644
2157.5 20.492361
2158 20.431679
2158.5 20.528276
2159 20.357433
2159.5 20.551167
2160 20.325068
2160.5 20.571624
2161 20.304607
2161.5 20.650609
2162 20.460866
2162.5 20.585635
2163 20.492049
2163.5 20.587909
2164 20.712268
2164.5 20.687301
2165 20.642889
2165.5 20.48912
2166 20.667869
2166.5 20.442575
2167 20.603493
2167.5 20.676151
2168 20.55991
2168.5 20.704007
2169 20.599651
2169.5 20.808253
2170 20.459689
2170.5 20.819184
2171 20.613483
2171.5 20.926997
2172 20.687965
2172.5 20.785846
2173 20.671441
2173.5 20.637976
2174 20.859531
2174.5 20.689437
2175 20.848572
2175.5 20.536372
2176 21.00905
2176.5 20.847797
2177 20.875527
2177.5 20.911829
2178 20.981561
2178.5 21.059011
2179 20.950733
2179.5 20.964307
2180 20.710546
2180.5 20.93911
2181 20.850191
2181.5 20.968504
2182 20.832311
2182.5 20.911071
2183 21.008056
2183.5 20.982935
2184 21.07787
2184.5 20.850034
2185 21.189386
2185.5 20.896736
2186 20.994115
2186.5 20.793369
2187 21.015608
2187.5 20.965594
2188 21.084422
2188.5 21.113123
2189 21.018848
2189.5 21.256763
2190 21.080327
2190.5 21.248934
2191 21.169679
2191.5 21.297601
2192 21.201572
2192.5 21.120314
2193 21.093538
2193.5 20.991053
2194 21.161784
2194.5 20.965907
2195 21.231151
2195.5 20.959106
2196 21.23574
2196.5 21.070997
2197 21.344869
2197.5 21.262215
2198 21.351911
2198.5 21.36746
2199 21.230572
2199.5 21.322358
2200 21.10388
2200.5 21.340877
2201 21.150695
2201.5 21.350479
2202 21.275227
2202.5 21.283814
2203 21.435167
2203.5 21.272807
2204 21.52403
2204.5 21.364796
2205 21.544643
2205.5 21.298167
2206 21.426311
2206.5 21.29081
2207 21.312818
2207.5 21.342187
2208 21.229921
2208.5 21.448244
2209 21.279967
2209.5 21.503778
2210 21.28796
2210.5 21.614042
2211 21.471682
2211.5 21.665059
2212 21.551512
2212.5 21.510105
2213 21.493845
2213.5 21.418856
2214 21.620487
2214.5 21.382448
2215 21.644869
2215.5 21.525364
2216 21.619467
2216.5 21.477918
2217 21.562198
2217.5 21.708149
2218 21.696709
2218.5 21.861398
2219 21.434945
2219.5 21.667154
2220 21.393704
2220.5 21.642107
2221 21.464932
2221.5 21.701869
2222 21.592456
2222.5 21.656083
2223 21.78876
2223.5 21.675447
2224 21.853572
2224.5 21.707605
2225 22.029807
2225.5 21.803489
2226 21.766721
2226.5 21.658564
2227 21.684194
2227.5 21.805216
2228 21.587631
2228.5 21.891366
2229 21.597359
2229.5 21.976551
2230 21.694641
2230.5 21.89566
2231 21.72292
2231.5 21.886931
2232 21.921387
2232.5 21.956103
2233 21.990333
2233.5 21.619695
2234 21.985221
2234.5 21.831401
2235 21.993591
2235.5 21.836813
2236 22.007501
2236.5 21.921502
2237 21.933077
2237.5 22.131883
2238 21.902782
2238.5 22.173893
2239 22.04797
2239.5 22.072886
2240 21.842863
2240.5 21.987937
2241 21.984261
2241.5 21.984707
2242 21.951212
2242.5 21.80607
2243 22.126898
2243.5 22.011679
2244 22.145943
2244.5 21.933508
2245 22.2863
2245.5 22.04112
2246 22.241436
2246.5 22.05085
2247 22.010122
2247.5 22.138633
2248 21.980585
2248.5 22.148284
2249 22.088662
2249.5 22.304603
2250 22.074465
2250.5 22.269528
2251 22.308917
2251.5 22.195916
2252 22.280332
2252.5 22.116521
2253 22.229868
2253.5 21.980476
2254 22.269805
2254.5 21.946898
2255 22.234038
2255.5 22.128595
2256 22.277929
2256.5 22.202402
2257 22.237431
2257.5 22.440559
2258 22.306557
2258.5 22.47595
2259 22.084624
2259.5 22.312908
2260 22.230873
2260.5 22.273679
2261 22.182716
2261.5 22.218177
2262 22.384262
2262.5 22.23234
2263 22.464512
2263.5 22.285004
2264 22.533146
2264.5 22.370361
2265 22.473519
2265.5 22.166044
2266 22.315097
2266.5 22.394714
2267 22.240917
2267.5 22.345452
2268 22.196375
2268.5 22.468525
2269 22.360903
2269.5 22.60662
2270 22.348006
2270.5 22.615209
2271 22.54082
2271.5 22.482328
2272 22.47477
2272.5 22.386119
2273 22.490849
2273.5 22.349873
2274 22.607587
2274.5 22.413296
2275 22.568576
2275.5 22.551908
2276 22.695957
2276.5 22.671735
2277 22.534944
2277.5 22.717674
2278 22.356506
2278.5 22.612329
2279 22.235668
2279.5 22.618347
2280 22.381662
2280.5 22.708507
2281 22.592069
2281.5 22.642463
2282 22.618836
2282.5 22.498016
2283 22.783023
2283.5 22.646044
2284 22.908828
2284.5 22.781162
2285 22.814225
2285.5 22.655322
2286 22.67043
2286.5 22.70681
2287 22.598533
2287.5 22.82168
2288 22.593828
2288.5 22.801012
2289 22.563706
2289.5 22.824943
2290 22.785814
2290.5 22.861817
2291 22.853525
2291.5 22.735611
2292 23.023352
2292.5 22.720931
2293 22.815059
2293.5 22.577406
2294 22.819611
2294.5 22.702044
2295 22.81173
2295.5 22.785354
2296 22.84528
2296.5 22.911145
2297 22.814734
2297.5 22.935916
2298 22.782885
2298.5 23.049735
2299 22.878605
2299.5 23.090571
2300 23.007749
2300.5 23.066744
2301 22.94953
2301.5 22.896785
2302 22.898202
2302.5 22.790386
2303 23.043858
2303.5 22.675963
2304 23.085056
2304.5 22.834758
2305 23.109519
2305.5 22.914043
2306 23.059331
2306.5 23.109917
2307 23.066902
2307.5 23.216684
2308 23.074566
2308.5 23.319408
2309 22.939612
2309.5 23.137259
2310 23.062381
2310.5 23.076591
2311 23.159488
2311.5 23.037338
2312 23.167208
2312.5 22.962023
2313 23.263721
2313.5 23.028627
2314 23.230813
2314.5 23.003672
2315 23.274104
2315.5 23.326676
2316 23.27702
2316.5 23.331358
2317 23.199534
2317.5 23.526235
2318 23.250315
2318.5 23.297124
2319 23.151986
2319.5 23.382778
2320 23.228155
2320.5 23.333012
2321 23.350708
2321.5 23.323697
2322 23.43276
2322.5 23.288122
2323 23.422575
2323.5 23.246787
2324 23.395035
2324.5 23.293833
2325 23.502076
2325.5 23.346184
2326 23.332466
2326.5 23.578522
2327 23.415205
2327.5 23.599751
2328 23.340189
2328.5 23.648907
2329 23.427722
2329.5 23.653792
2330 23.540753
2330.5 23.499855
2331 23.455711
2331.5 23.464255
2332 23.648214
2332.5 23.489971
2333 23.630413
2333.5 23.388779
2334 23.769112
2334.5 23.60606
2335 23.620956
2335.5 23.611593
2336 23.577015
2336.5 23.698987
2337 23.550291
2337.5 23.807596
2338 23.581155
2338.5 23.933879
2339 23.816258
2339.5 23.782057
2340 23.544365
2340.5 23.642449
2341 23.793368
2341.5 23.555815
2342 23.76236
2342.5 23.530488
2343 23.831563
2343.5 23.645319
2344 23.87601
2344.5 23.71037
2345 23.900384
2345.5 23.846242
2346 23.863733
2346.5 23.89816
2347 23.87941
2347.5 24.116415
2348 23.854563
2348.5 24.084067
2349 23.719402
2349.5 23.838101
2350 23.813894
2350.5 23.858543
2351 23.902905
2351.5 23.749056
2352 24.011582
2352.5 23.765908
2353 24.111706
2353.5 23.806021
2354 24.072972
2354.5 23.872995
2355 24.13291
2355.5 24.111466
2356 24.080347
2356.5 24.154246
2357 24.069792
2357.5 24.207455
2358 23.934464
2358.5 24.238995
2359 23.992355
2359.5 24.12488
2360 24.090536
2360.5 23.995896
2361 24.172856
2361.5 23.962717
2362 24.162507
2362.5 23.962969
2363 24.240673
2363.5 23.942024
2364 24.318886
2364.5 24.145459
2365 24.326591
2365.5 24.304272
2366 24.105313
2366.5 24.230275
2367 24.070266
2367.5 24.25479
2368 23.925638
2368.5 24.352899
2369 24.115917
2369.5 24.340113
2370 24.19434
2370.5 24.341346
2371 24.367402
2371.5 24.287838
2372 24.468048
2372.5 24.251044
2373 24.514754
2373.5 24.319389
2374 24.518171
2374.5 24.280694
2375 24.305852
2375.5 24.373579
2376 24.346945
2376.5 24.387141
2377 24.201037
2377.5 24.585941
2378 24.260211
2378.5 24.620862
2379 24.323551
2379.5 24.543329
2380 24.487777
2380.5 24.63401
2381 24.613498
2381.5 24.517152
2382 24.506018
2382.5 24.260816
2383 24.686347
2383.5 24.51826
2384 24.620165
2384.5 24.491452
2385 24.59521
2385.5 24.564193
2386 24.516915
2386.5 24.706498
2387 24.521314
2387.5 24.818937
2388 24.574251
2388.5 24.818406
2389 24.557157
2389.5 24.639402
2390 24.583946
2390.5 24.668525
2391 24.705736
2391.5 24.38236
2392 24.787836
2392.5 24.572216
2393 24.751659
2393.5 24.583681
2394 24.882676
2394.5 24.768114
2395 24.840724
2395.5 24.8441
2396 24.835235
2396.5 24.892862
2397 24.758546
2397.5 24.82429
2398 24.669258
2398.5 24.838682
2399 24.720557
2399.5 24.828075
2400 24.737722
2400.5 24.779551
2401 24.892367
2401.5 24.874815
2402 25.022259
2402.5 24.697258
2403 25.03112
2403.5 24.773251
2404 24.977791
2404.5 24.842635
2405 24.954134
2405.5 24.863915
2406 24.889252
2406.5 24.999075
2407 24.902047
2407.5 25.18245
2408 24.956471
2408.5 25.261578
2409 25.086659
2409.5 25.154912
2410 25.082898
2410.5 25.072688
2411 25.109434
2411.5 24.886978
2412 25.168625
2412.5 24.823117
2413 25.247428
2413.5 24.948327
2414 25.196806
2414.5 25.021538
2415 25.124267
2415.5 25.160128
2416 25.101909
2416.5 25.145039
2417 24.884214
2417.5 25.314876
2418 25.082442
2418.5 25.267881
2419 25.15133
2419.5 25.353202
2420 25.304621
2420.5 25.278667
2421 25.306574
2421.5 25.151122
2422 25.392208
2422.5 25.304917
2423 25.4437
2423.5 25.257537
2424 25.309956
2424.5 25.229576
2425 25.3656
2425.5 25.231948
2426 25.154069
2426.5 25.37365
2427 25.205168
2427.5 25.469643
2428 25.118259
2428.5 25.431892
2429 25.257385
2429.5 25.53553
2430 25.406992
2430.5 25.492275
2431 25.406787
2431.5 25.258645
2432 25.463516
2432.5 25.439239
2433 25.492314
2433.5 25.277159
2434 25.51471
2434.5 25.496715
2435 25.506127
2435.5 25.571057
2436 25.521865
2436.5 25.669441
2437 25.421724
2437.5 25.745383
2438 25.363159
2438.5 25.659057
2439 25.421518
2439.5 25.58763
2440 25.538161
2440.5 25.58901
2441 25.722706
2441.5 25.58274
2442 25.626495
2442.5 25.379154
2443 25.702375
2443.5 25.595963
2444 25.748348
2444.5 25.541508
2445 25.635886
2445.5 25.759807
2446 25.631753
2446.5 25.839075
2447 25.670198
2447.5 25.849521
2448 25.602964
2448.5 25.713933
2449 25.610223
2449.5 25.774676
2450 25.715193
2450.5 25.723168
2451 25.790048
2451.5 25.560835
2452 25.877985
2452.5 25.682139
2453 25.877631
2453.5 25.538808
2454 25.855306
2454.5 25.707248
2455 25.859118
2455.5 25.794083
2456 25.807789
2456.5 25.935528
2457 25.756696
2457.5 25.961915
2458 25.744486
2458.5 26.075345
2459 25.899547
2459.5 25.99543
2460 25.788534
2460.5 25.803727
2461 25.902942
2461.5 25.855428
2462 26.108539
2462.5 25.826856
2463 26.113468
2463.5 25.846142
2464 26.119295
2464.5 26.117221
2465 26.04472
2465.5 26.036572
2466 25.91477
2466.5 26.161399
2467 25.920165
2467.5 26.106644
2468 25.838158
2468.5 26.033601
2469 25.926805
2469.5 25.914425
2470 25.908753
2470.5 25.958422
2471 26.181713
2471.5 26.102498
2472 26.380625
2472.5 26.082209
2473 26.324138
2473.5 26.157147
2474 26.302755
2474.5 26.181632
2475 26.103067
2475.5 26.306921
2476 26.277739
2476.5 26.29472
2477 26.087955
2477.5 26.385081
2478 26.050928
2478.5 26.306412
2479 26.157039
2479.5 26.279795
2480 26.285198
2480.5 26.426873
2481 26.460761
2481.5 26.142064
2482 26.379102
2482.5 26.200917
2483 26.474583
2483.5 26.222429
2484 26.389152
2484.5 26.298782
2485 26.393205
2485.5 26.418597
2486 26.26043
2486.5 26.507485
2487 26.290563
2487.5 26.649535
2488 26.343009
2488.5 26.636758
2489 26.458338
2489.5 26.56315
2490 26.541236
2490.5 26.507509
2491 26.431084
2491.5 26.119193
2492 26.590848
2492.5 26.401341
2493 26.675504
2493.5 26.457453
2494 26.79022
2494.5 26.734287
2495 26.613411
2495.5 26.687834
2496 26.575866
2496.5 26.793805
2497 26.570913
2497.5 26.745039
2498 26.457375
2498.5 26.686448
2499 26.541752
2499.5 26.584259
2500 26.651591
2500.5 26.545948
2501 26.776889
2501.5 26.574856
2502 26.674333
2502.5 26.3897
2503 26.795074
2503.5 26.582381
2504 26.850319
2504.5 26.76608
2505 26.838687
2505.5 26.888126
2506 26.833841
2506.5 26.898021
2507 26.728046
2507.5 26.906618
2508 26.701528
2508.5 26.967356
2509 26.774481
2509.5 26.81956
2510 26.910591
2510.5 26.834604
2511 26.888344
2511.5 26.652148
2512 26.868984
2512.5 26.589924
2513 26.872784
2513.5 26.682919
2514 26.785672
2514.5 26.722226
2515 26.865295
2515.5 26.98133
2516 26.956454
2516.5 27.087626
2517 26.853022
2517.5 27.263838
2518 27.074462
2518.5 27.239987
2519 27.026883
2519.5 27.155745
2520 27.106082
2520.5 27.012357
2521 27.258924
2521.5 26.967713
2522 27.198756
2522.5 26.981315
2523 27.227235
2523.5 26.983595
2524 27.054426
2524.5 27.156702
2525 26.973367
2525.5 27.045205
2526 26.877972
2526.5 27.162406
2527 26.973391
2527.5 27.240676
2528 26.975611
2528.5 27.225319
2529 27.074659
2529.5 27.217856
2530 27.125087
2530.5 27.024162
2531 27.153018
2531.5 27.014509
2532 27.299708
2532.5 27.158999
2533 27.39135
2533.5 27.190903
2534 27.264774
2534.5 27.24627
2535 27.223387
2535.5 27.407879
2536 27.329668
2536.5 27.673778
2537 27.251908
2537.5 27.47089
2538 27.202043
2538.5 27.43389
2539 27.291778
2539.5 27.389497
2540 27.347532
2540.5 27.249032
2541 27.484372
2541.5 27.340171
2542 27.427554
2542.5 27.221474
2543 27.55813
2543.5 27.231893
2544 27.40975
2544.5 27.475128
2545 27.373323
2545.5 27.506521
2546 27.198541
2546.5 27.453893
2547 27.194193
2547.5 27.406383
2548 27.190411
2548.5 27.401385
2549 27.268317
2549.5 27.266103
2550 27.552575
2550.5 27.485555
2551 27.502865
2551.5 27.262354
2552 27.679908
2552.5 27.513322
2553 27.64605
2553.5 27.550542
2554 27.770048
2554.5 27.878356
2555 27.890754
2555.5 27.95049
2556 27.680826
2556.5 27.914822
2557 27.659723
2557.5 27.874997
2558 27.6086
2558.5 27.524281
2559 27.690327
2559.5 27.752006
2560 27.535936
2560.5 27.389222
2561 27.639002
2561.5 27.20226
2562 27.578238
2562.5 27.345148
2563 27.570191
2563.5 27.302498
2564 27.552766
2564.5 27.659228
2565 27.531907
2565.5 27.767947
2566 27.606586
2566.5 27.890205
2567 27.710769
2567.5 27.90992
2568 27.690524
2568.5 27.872163
2569 27.794844
2569.5 27.806246
2570 27.89925
2570.5 27.65843
2571 27.744228
2571.5 27.458268
2572 27.703354
2572.5 27.651897
2573 27.909216
2573.5 27.807143
2574 27.812028
2574.5 27.751809
2575 27.620307
2575.5 27.908659
2576 27.896768
2576.5 28.124613
2577 27.806213
2577.5 28.118539
2578 27.833474
2578.5 27.99105
2579 27.887028
2579.5 27.874714
2580 27.978826
2580.5 27.844357
2581 27.905601
2581.5 27.759817
2582 27.998552
2582.5 27.832213
2583 27.895969
2583.5 27.780405
2584 27.903289
2584.5 27.950686
2585 27.738643
2585.5 27.777854
2586 27.575657
2586.5 28.103817
2587 27.775356
2587.5 28.172264
2588 27.913508
2588.5 27.991155
2589 27.892405
2589.5 27.912331
2590 27.984527
2590.5 27.78388
2591 28.025448
2591.5 27.685857
2592 27.868977
2592.5 27.750555
2593 27.98771
2593.5 27.809969
2594 27.997914
2594.5 28.12458
2595 28.004965
2595.5 28.122649
2596 27.847704
2596.5 28.237784
2597 27.938348
2597.5 28.265744
2598 28.021094
2598.5 28.141192
2599 28.161174
2599.5 28.205082
2600 28.256804
2600.5 27.973121
2601 28.317937
2601.5 28.244746
2602 28.383809
2602.5 27.956042
2603 28.281796
2603.5 28.247228
2604 28.174183
2604.5 28.116906
2605 28.057036
2605.5 28.228214
2606 28.076228
2606.5 28.269637
2607 27.972534
2607.5 28.082973
2608 28.086218
2608.5 28.211701
2609 28.19474
2609.5 28.362688
2610 28.523088
2610.5 28.288272
2611 28.446299
2611.5 28.209311
2612 28.482646
2612.5 28.229856
2613 28.533444
2613.5 28.328362
2614 28.323635
2614.5 28.233978
2615 28.236443
2615.5 28.41872
2616 28.323987
2616.5 28.636527
2617 28.204146
2617.5 28.479847
2618 28.359938
2618.5 28.386113
2619 28.472078
2619.5 28.611359
2620 28.719097
2620.5 28.1991
2621 28.082824
2621.5 28.504321
2622 28.392819
2622.5 28.539142
2623 28.268528
2623.5 28.449583
2624 28.393883
2624.5 28.617629
2625 28.596321
2625.5 28.472197
2626 28.781134
2626.5 28.409639
2627 28.707978
2627.5 28.381598
2628 28.493199
2628.5 28.276479
2629 28.554606
2629.5 28.512588
2630 28.260797
2630.5 28.460422
2631 28.185421
2631.5 28.469762
2632 28.329596
2632.5 28.771716
2633 28.479329
2633.5 28.654367
2634 28.899652
2634.5 28.919008
2635 29.043224
2635.5 28.831354
2636 29.232883
2636.5 29.105964
2637 29.211384
2637.5 28.967878
2638 29.224887
2638.5 29.007691
2639 29.072255
2639.5 29.073557
2640 29.072931
2640.5 29.109213
2641 29.065692
2641.5 29.191139
2642 28.97234
2642.5 29.176581
2643 29.075703
2643.5 29.278105
2644 29.158637
2644.5 29.097539
2645 29.364702
2645.5 29.368925
2646 29.439586
2646.5 29.16986
2647 29.34134
2647.5 28.955844
2648 29.418924
2648.5 29.126251
2649 29.350072
2649.5 29.296482
2650 29.329133
2650.5 29.488236
2651 29.287195
2651.5 29.516342
2652 29.247198
2652.5 29.534549
2653 29.185992
2653.5 29.34835
2654 29.331267
2654.5 29.244608
2655 29.377186
2655.5 29.160324
2656 29.457942
2656.5 29.136956
2657 29.446805
2657.5 29.131407
2658 29.39392
2658.5 29.212567
2659 29.46322
2659.5 29.518512
2660 29.301465
2660.5 29.429594
2661 29.184866
2661.5 29.367524
2662 29.349637
2662.5 29.309157
2663 29.167232
2663.5 29.363632
2664 29.370612
2664.5 29.473901
2665 29.449072
2665.5 29.113007
2666 29.099131
2666.5 28.920397
2667 29.128253
2667.5 28.810292
2668 28.910622
2668.5 28.656352
2669 28.733954
2669.5 28.773111
2670 28.616005
2670.5 28.679892
2671 28.221506
2671.5 28.275475
2672 27.753821
2672.5 28.168303
2673 27.873924
2673.5 28.322002
2674 28.243774
2674.5 28.479147
2675 28.531012
2675.5 28.557315
2676 28.701824
2676.5 28.535268
2677 28.828493
2677.5 28.682742
2678 28.788215
2678.5 28.714761
2679 28.686467
2679.5 28.677866
2680 28.65608
2680.5 28.737685
2681 28.530249
2681.5 28.773153
2682 28.520608
2682.5 28.946912
2683 28.812259
2683.5 29.035872
2684 29.081261
2684.5 29.180264
2685 29.45056
2685.5 29.304576
2686 29.587767
2686.5 29.307961
2687 29.770622
2687.5 29.554385
2688 29.790366
2688.5 29.472166
2689 29.606697
2689.5 29.608971
2690 29.615119
2690.5 29.703102
2691 29.509044
2691.5 29.671121
2692 29.497924
2692.5 29.725343
2693 29.439253
2693.5 29.517755
2694 29.663947
2694.5 29.765138
2695 29.749259
2695.5 29.508334
2696 29.755795
2696.5 29.325908
2697 29.685968
2697.5 29.318166
2698 29.646537
2698.5 29.472008
2699 29.77632
2699.5 29.864863
2700 29.953849
2700.5 30.130374
2701 30.108005
2701.5 30.259708
2702 29.863346
2702.5 30.060241
2703 29.904297
2703.5 30.192146
2704 30.063218
2704.5 29.927623
2705 30.154398
2705.5 29.902709
2706 30.099356
2706.5 29.747197
2707 29.941145
2707.5 29.633078
2708 29.873979
2708.5 29.74318
2709 29.766503
2709.5 29.79292
2710 29.719874
2710.5 30.046043
2711 29.858163
2711.5 30.12892
2712 29.752398
2712.5 30.01745
2713 29.657689
2713.5 29.815671
2714 29.676482
2714.5 29.788029
2715 29.907635
2715.5 29.886636
2716 29.979333
2716.5 29.796806
2717 30.19447
2717.5 30.048874
2718 30.248803
2718.5 30.165631
2719 30.094582
2719.5 30.122614
2720 30.058613
2720.5 30.172893
2721 29.721096
2721.5 29.933804
2722 29.529011
2722.5 29.726061
2723 29.39375
2723.5 29.525286
2724 29.211795
2724.5 29.370385
2725 29.631034
2725.5 29.687878
2726 29.929325
2726.5 29.811251
2727 30.328894
2727.5 30.17036
2728 30.327317
2728.5 30.442017
2729 30.671713
2729.5 30.469608
2730 30.393383
2730.5 30.675367
2731 30.487144
2731.5 30.804083
2732 30.384839
2732.5 30.594727
2733 30.39701
2733.5 30.622819
2734 30.476749
2734.5 30.573913
2735 30.571559
2735.5 30.257899
2736 30.439079
2736.5 30.259672
2737 30.435029
2737.5 30.019036
2738 30.170128
2738.5 29.932708
2739 30.10692
2739.5 30.045116
2740 30.029035
2740.5 30.085048
2741 29.852882
2741.5 29.94031
2742 29.696807
2742.5 29.892984
2743 29.64898
2743.5 29.938287
2744 29.764038
2744.5 29.860595
2745 30.040777
2745.5 30.167711
2746 30.470443
2746.5 30.091614
2747 30.423832
2747.5 30.104235
2748 30.564067
2748.5 30.42956
2749 30.692282
2749.5 30.549392
2750 30.516881
2750.5 30.574459
2751 30.458942
2751.5 30.628264
2752 30.385023
2752.5 30.549797
2753 30.361179
2753.5 30.505461
2754 30.412149
2754.5 30.480346
2755 30.52831
2755.5 30.228391
2756 30.359933
2756.5 29.781407
2757 30.047449
2757.5 29.747692
2758 29.948631
2758.5 29.729617
2759 29.818675
2759.5 29.719874
2760 29.45039
2760.5 29.587129
2761 29.301131
2761.5 29.837465
2762 29.817632
2762.5 30.088273
2763 29.862908
2763.5 30.46872
2764 30.167118
2764.5 30.151537
2765 30.085787
2765.5 29.902524
2766 29.963297
2766.5 29.874068
2767 30.232686
2767.5 29.863921
2768 29.987323
2768.5 29.826817
2769 30.01478
2769.5 29.91322
2770 29.875001
2770.5 30.069074
2771 30.009121
2771.5 30.213544
2772 29.936144
2772.5 30.361962
2773 29.964823
2773.5 30.20868
2774 30.133241
2774.5 30.164438
2775 30.101231
2775.5 30.02443
2776 30.277866
2776.5 30.112082
2777 30.409709
2777.5 30.134466
2778 30.541733
2778.5 30.281767
2779 30.414352
2779.5 30.360949
2780 30.275241
2780.5 30.421892
2781 30.088103
2781.5 30.337197
2782 30.082074
2782.5 30.431324
2783 30.149201
2783.5 30.348852
2784 30.209205
2784.5 30.288562
2785 30.390558
2785.5 30.227375
2786 30.358297
2786.5 29.954872
2787 30.442926
2787.5 30.220038
2788 30.689013
2788.5 30.122215
2789 30.483809
2789.5 30.48619
2790 30.382216
2790.5 30.658168
2791 30.597931
2791.5 30.759442
2792 30.625343
2792.5 30.913338
2793 30.626434
2793.5 30.771947
2794 30.675122
2794.5 30.869314
2795 30.903605
2795.5 30.718219
2796 31.08198
2796.5 30.766481
2797 30.892202
2797.5 30.579662
2798 30.939341
2798.5 30.566156
2799 30.891475
2799.5 30.830204
2800 31.141642
##END=
