##TITLE= m- Saphir-3mm-030924
##JCAMP-DX= 4.24
##DATA TYPE= UV/VIS SPECTRUM
##ORIGIN=  Lambda-SPX/P Scan
##OWNER= Optiplex/OPTIPLEX-755
##DATE= 03.09.2024 13:05:42
##SPECTROMETER/DATA SYSTEM= Lambda 19 UV/Vis/NIR
##SAMPLE DESCRIPTION= 030924
##DELTAX= 0.5
##XUNITS= NANOMETERS
##YUNITS= TRANSMITTANCE
$$COMMENT= RTUNITS 0-1
##XFACTOR= 1.0
##YFACTOR= 0.01
##FIRSTX= 200
##LASTX= 2800
##NPOINTS= 5201
##FIRSTY= 0.078089
##MAXY= 0.39369
##MINY= 0.078002
##XYDATA= (XY..XY)
200 7.80893
200.5 7.800163
201 7.865261
201.5 7.92106
202 7.897912
202.5 7.887538
203 7.878403
203.5 8.000593
204 7.941949
204.5 8.020487
205 8.019724
205.5 8.011488
206 8.026428
206.5 7.965743
207 8.119995
207.5 8.031701
208 8.144341
208.5 8.105738
209 8.138785
209.5 8.197132
210 8.152498
210.5 8.232272
211 8.136748
211.5 8.203512
212 8.186297
212.5 8.266658
213 8.22677
213.5 8.310911
214 8.244577
214.5 8.283831
215 8.349451
215.5 8.324549
216 8.3583
216.5 8.33205
217 8.398405
217.5 8.390269
218 8.449094
218.5 8.42775
219 8.443668
219.5 8.466934
220 8.46583
220.5 8.500953
221 8.494408
221.5 8.526364
222 8.5121
222.5 8.551946
223 8.573271
223.5 8.578346
224 8.567292
224.5 8.578771
225 8.62017
225.5 8.615955
226 8.652072
226.5 8.620801
227 8.689765
227.5 8.656601
228 8.724974
228.5 8.691319
229 8.742514
229.5 8.757171
230 8.734458
230.5 8.772945
231 8.734746
231.5 8.82334
232 8.770865
232.5 8.820508
233 8.804465
233.5 8.873094
234 8.813486
234.5 8.851714
235 8.852775
235.5 8.877782
236 8.90298
236.5 8.893085
237 8.907471
237.5 8.923861
238 8.949946
238.5 8.90721
239 8.968324
239.5 8.961611
240 8.956973
240.5 8.981126
241 8.976557
241.5 9.003261
242 8.994928
242.5 9.05007
243 9.025949
243.5 9.06286
244 9.033195
244.5 9.048701
245 9.073417
245.5 9.089485
246 9.112803
246.5 9.078459
247 9.095562
247.5 9.089437
248 9.121668
248.5 9.087294
249 9.124406
249.5 9.144635
250 9.142358
250.5 9.151515
251 9.113054
251.5 9.174963
252 9.181201
252.5 9.210334
253 9.173892
253.5 9.217559
254 9.185978
254.5 9.218867
255 9.191993
255.5 9.199341
256 9.237949
256.5 9.212451
257 9.2607
257.5 9.240355
258 9.281787
258.5 9.241097
259 9.274907
259.5 9.28016
260 9.261691
260.5 9.293408
261 9.310752
261.5 9.341715
262 9.300273
262.5 9.353691
263 9.332183
263.5 9.365852
264 9.336822
264.5 9.369871
265 9.357335
265.5 9.369017
266 9.408815
266.5 9.369376
267 9.398174
267.5 9.382628
268 9.437168
268.5 9.404886
269 9.430151
269.5 9.443424
270 9.460225
270.5 9.44542
271 9.46347
271.5 9.475887
272 9.433793
272.5 9.511157
273 9.503487
273.5 9.518256
274 9.49281
274.5 9.53698
275 9.528243
275.5 9.543671
276 9.538254
276.5 9.553349
277 9.585498
277.5 9.552055
278 9.616347
278.5 9.565752
279 9.589468
279.5 9.633967
280 9.607236
280.5 9.612519
281 9.609148
281.5 9.641393
282 9.598024
282.5 9.642441
283 9.635375
283.5 9.661918
284 9.659714
284.5 9.649304
285 9.678088
285.5 9.658636
286 9.701944
286.5 9.678996
287 9.714144
287.5 9.694031
288 9.701533
288.5 9.71016
289 9.763367
289.5 9.728664
290 9.737545
290.5 9.764002
291 9.738869
291.5 9.783757
292 9.721649
292.5 9.791237
293 9.741407
293.5 9.799539
294 9.752789
294.5 9.785226
295 9.793098
295.5 9.804472
296 9.828889
296.5 9.829976
297 9.816537
297.5 9.797497
298 9.87291
298.5 9.807023
299 9.839821
299.5 9.856228
300 9.835905
300.5 9.865062
301 9.83124
301.5 9.85377
302 9.860866
302.5 9.907045
303 9.899805
303.5 9.908764
304 9.849376
304.5 9.90927
305 9.919748
305.5 9.907147
306 9.935693
306.5 9.879158
307 9.952909
307.5 9.866287
308 9.931204
308.5 9.936883
309 9.928764
309.5 9.918099
310 9.94414
310.5 9.931371
311 9.977199
311.5 9.974684
312 9.951611
312.5 10.025121
313 9.988949
313.5 9.994659
314 9.997625
314.5 10.011569
315 9.978389
315.5 9.995946
316 10.025708
316.5 9.95712
317 10.065303
317.5 9.995797
318 10.046969
318.5 10.021672
319 10.030912
319.5 10.124884
320 10.178802
320.5 10.158733
321 10.173659
321.5 10.158464
322 10.181214
322.5 10.154263
323 10.168494
323.5 10.18808
324 10.222278
324.5 10.139345
325 10.204338
325.5 10.185861
326 10.217758
326.5 10.205864
327 10.256304
327.5 10.21999
328 10.251959
328.5 10.214064
329 10.248385
329.5 10.224882
330 10.231281
330.5 10.252257
331 10.250364
331.5 10.219769
332 10.250999
332.5 10.263946
333 10.265716
333.5 10.267726
334 10.270586
334.5 10.295598
335 10.317009
335.5 10.248955
336 10.3107
336.5 10.286158
337 10.338595
337.5 10.316678
338 10.304513
338.5 10.316776
339 10.32285
339.5 10.341704
340 10.338318
340.5 10.33948
341 10.355947
341.5 10.356417
342 10.373325
342.5 10.359123
343 10.361239
343.5 10.352365
344 10.356388
344.5 10.358818
345 10.398974
345.5 10.387193
346 10.402471
346.5 10.394394
347 10.388301
347.5 10.404888
348 10.408464
348.5 10.390865
349 10.392255
349.5 10.417849
350 10.388709
350.5 10.38846
351 10.397808
351.5 10.387692
352 10.362808
352.5 10.396253
353 10.459121
353.5 10.429359
354 10.421809
354.5 10.421996
355 10.444088
355.5 10.449722
356 10.440908
356.5 10.430092
357 10.446025
357.5 10.44889
358 10.425311
358.5 10.468926
359 10.460073
359.5 10.459485
360 10.448182
360.5 10.450114
361 10.474832
361.5 10.424136
362 10.460164
362.5 10.452234
363 10.459075
363.5 10.476698
364 10.483574
364.5 10.457624
365 10.49588
365.5 10.45079
366 10.476271
366.5 10.466269
367 10.466103
367.5 10.513276
368 10.477069
368.5 10.486934
369 10.419627
369.5 10.487135
370 10.520415
370.5 10.521799
371 10.481253
371.5 10.465681
372 10.555587
372.5 10.517568
373 10.504958
373.5 10.506712
374 10.467739
374.5 10.484945
375 10.480037
375.5 10.448503
376 10.513472
376.5 10.518236
377 10.464574
377.5 10.475942
378 10.519799
378.5 10.516547
379 10.501633
379.5 10.651771
380 10.67409
380.5 10.662674
381 10.701519
381.5 10.687003
382 10.679591
382.5 10.659029
383 10.685904
383.5 10.669792
384 10.629107
384.5 10.690168
385 10.649915
385.5 10.665265
386 10.601974
386.5 10.638384
387 10.670309
387.5 10.651721
388 10.672288
388.5 10.720024
389 10.657109
389.5 10.679142
390 10.6778
390.5 10.661665
391 10.690692
391.5 10.688467
392 10.720352
392.5 10.688982
393 10.696123
393.5 10.672465
394 10.648773
394.5 10.709073
395 10.691656
395.5 10.713517
396 10.687208
396.5 10.693883
397 10.696048
397.5 10.728025
398 10.689697
398.5 10.675374
399 10.704958
399.5 10.732004
400 10.713494
400.5 10.676689
401 10.739267
401.5 10.684075
402 10.737706
402.5 10.703608
403 10.711493
403.5 10.732313
404 10.707007
404.5 10.699562
405 10.68261
405.5 10.71225
406 10.748052
406.5 10.702457
407 10.730179
407.5 10.720582
408 10.744057
408.5 10.75768
409 10.724196
409.5 10.709186
410 10.767335
410.5 10.765392
411 10.763329
411.5 10.743813
412 10.749954
412.5 10.71711
413 10.719361
413.5 10.752796
414 10.758857
414.5 10.831167
415 10.74108
415.5 10.744464
416 10.764096
416.5 10.750559
417 10.757063
417.5 10.780289
418 10.79005
418.5 10.775428
419 10.781861
419.5 10.782956
420 10.789949
420.5 10.777552
421 10.778911
421.5 10.776034
422 10.757535
422.5 10.733589
423 10.7966
423.5 10.791648
424 10.778881
424.5 10.810106
425 10.768968
425.5 10.790407
426 10.790603
426.5 10.806502
427 10.803304
427.5 10.797219
428 10.793436
428.5 10.783997
429 10.813241
429.5 10.778284
430 10.809454
430.5 10.774618
431 10.831198
431.5 10.771211
432 10.816269
432.5 10.796662
433 10.805033
433.5 10.822233
434 10.806735
434.5 10.780215
435 10.818154
435.5 10.787856
436 10.859777
436.5 10.825048
437 10.772011
437.5 10.807
438 10.809711
438.5 10.808678
439 10.850544
439.5 10.820872
440 10.823736
440.5 10.844566
441 10.818973
441.5 10.792547
442 10.850642
442.5 10.858482
443 10.827788
443.5 10.819153
444 10.829156
444.5 10.847296
445 10.830628
445.5 10.808463
446 10.821404
446.5 10.82978
447 10.85211
447.5 10.85436
448 10.833663
448.5 10.861462
449 10.885253
449.5 10.868146
450 10.891992
450.5 10.880399
451 10.87282
451.5 10.883876
452 10.879434
452.5 10.855628
453 10.851302
453.5 10.863619
454 10.84575
454.5 10.878667
455 10.868447
455.5 10.861424
456 10.893911
456.5 10.881051
457 10.903935
457.5 10.872534
458 10.922034
458.5 10.920879
459 10.884937
459.5 10.915023
460 10.902974
460.5 10.880551
461 10.902621
461.5 10.918214
462 10.917838
462.5 10.918021
463 10.896938
463.5 10.937943
464 10.934035
464.5 10.895442
465 10.90606
465.5 10.921709
466 10.906164
466.5 10.921068
467 10.891048
467.5 10.910998
468 10.928585
468.5 10.912397
469 10.923479
469.5 10.896254
470 10.934955
470.5 10.918237
471 10.905239
471.5 10.920724
472 10.912108
472.5 10.89896
473 10.944839
473.5 10.934307
474 10.909365
474.5 10.902173
475 10.909065
475.5 10.909966
476 10.908427
476.5 10.906732
477 10.906643
477.5 10.923047
478 10.922548
478.5 10.908903
479 10.893923
479.5 10.926414
480 10.919374
480.5 10.922986
481 10.919173
481.5 10.881008
482 10.90133
482.5 10.895204
483 10.926625
483.5 10.912019
484 10.907739
484.5 10.889196
485 10.909719
485.5 10.943571
486 10.92942
486.5 10.923508
487 10.934018
487.5 10.936758
488 10.919812
488.5 10.968523
489 10.958929
489.5 10.931241
490 10.932522
490.5 10.961071
491 10.980315
491.5 10.958053
492 10.98408
492.5 10.94084
493 10.972352
493.5 10.989237
494 10.990012
494.5 10.988621
495 10.992094
495.5 11.005354
496 10.980195
496.5 10.973145
497 10.992022
497.5 11.02477
498 11.006923
498.5 11.015745
499 11.023926
499.5 10.993717
500 11.046208
500.5 11.034235
501 10.995275
501.5 11.023401
502 11.030378
502.5 11.039483
503 11.041045
503.5 11.041366
504 11.04049
504.5 11.062111
505 11.035626
505.5 11.045875
506 11.043788
506.5 11.054882
507 11.034841
507.5 11.066391
508 11.064952
508.5 11.086978
509 11.069902
509.5 11.056875
510 11.078056
510.5 11.057685
511 11.088049
511.5 11.037988
512 11.085694
512.5 11.057428
513 11.075403
513.5 11.049089
514 11.074965
514.5 11.057378
515 11.049079
515.5 11.054256
516 11.036439
516.5 11.056376
517 11.028679
517.5 11.064725
518 11.040127
518.5 11.042539
519 11.044749
519.5 11.021644
520 11.035331
520.5 11.037223
521 11.034811
521.5 11.037963
522 11.056153
522.5 11.043401
523 11.03401
523.5 11.027287
524 11.033595
524.5 11.024585
525 11.025671
525.5 11.022636
526 11.013001
526.5 11.036029
527 11.027355
527.5 11.032306
528 11.028457
528.5 11.017344
529 10.999218
529.5 10.988301
530 11.036126
530.5 11.01419
531 11.028269
531.5 11.000729
532 11.034317
532.5 11.01357
533 11.012303
533.5 11.019973
534 11.012908
534.5 11.017635
535 11.012726
535.5 11.007653
536 11.021738
536.5 10.989006
537 11.022003
537.5 11.030524
538 11.013658
538.5 11.021831
539 11.010734
539.5 11.012287
540 10.996642
540.5 11.037318
541 11.020976
541.5 11.01692
542 11.027399
542.5 11.001065
543 11.034603
543.5 11.037622
544 11.024851
544.5 11.033717
545 11.024415
545.5 11.023274
546 11.031067
546.5 11.045481
547 11.037032
547.5 11.020133
548 11.039352
548.5 11.027414
549 11.037345
549.5 11.056392
550 11.042172
550.5 11.041946
551 11.078871
551.5 11.046749
552 11.051249
552.5 11.029447
553 11.059103
553.5 11.06052
554 11.063503
554.5 11.056982
555 11.056106
555.5 11.055055
556 11.048728
556.5 11.066377
557 11.041402
557.5 11.068411
558 11.065033
558.5 11.056339
559 11.077935
559.5 11.039427
560 11.08256
560.5 11.047777
561 11.106896
561.5 11.089993
562 11.091183
562.5 11.067747
563 11.071496
563.5 11.067953
564 11.066058
564.5 11.082982
565 11.060603
565.5 11.093462
566 11.066784
566.5 11.063788
567 11.095572
567.5 11.088586
568 11.066645
568.5 11.070724
569 11.093286
569.5 11.082406
570 11.101732
570.5 11.088946
571 11.101156
571.5 11.092778
572 11.093292
572.5 11.096467
573 11.072976
573.5 11.115307
574 11.07868
574.5 11.102857
575 11.094195
575.5 11.094038
576 11.094095
576.5 11.121751
577 11.089654
577.5 11.098529
578 11.118992
578.5 11.112851
579 11.119848
579.5 11.111286
580 11.119652
580.5 11.12526
581 11.125849
581.5 11.120384
582 11.110716
582.5 11.128753
583 11.131382
583.5 11.121902
584 11.121526
584.5 11.127727
585 11.122991
585.5 11.129687
586 11.101168
586.5 11.132749
587 11.13755
587.5 11.110298
588 11.125041
588.5 11.144596
589 11.140181
589.5 11.145409
590 11.14965
590.5 11.139815
591 11.152745
591.5 11.13158
592 11.153325
592.5 11.148567
593 11.165956
593.5 11.147062
594 11.160305
594.5 11.1655
595 11.168469
595.5 11.164043
596 11.175679
596.5 11.157852
597 11.173512
597.5 11.163029
598 11.156713
598.5 11.17722
599 11.160674
599.5 11.174061
600 11.162729
600.5 11.149109
601 11.197694
601.5 11.179529
602 11.189467
602.5 11.15903
603 11.159224
603.5 11.194137
604 11.171383
604.5 11.207338
605 11.175962
605.5 11.196955
606 11.187625
606.5 11.205921
607 11.190086
607.5 11.202891
608 11.212778
608.5 11.213356
609 11.207445
609.5 11.188544
610 11.200368
610.5 11.208187
611 11.23345
611.5 11.206602
612 11.213826
612.5 11.217116
613 11.206029
613.5 11.200938
614 11.215404
614.5 11.208706
615 11.228909
615.5 11.226028
616 11.223788
616.5 11.216581
617 11.22664
617.5 11.22195
618 11.256292
618.5 11.244391
619 11.230384
619.5 11.243093
620 11.258151
620.5 11.220741
621 11.229585
621.5 11.25159
622 11.237732
622.5 11.25454
623 11.256304
623.5 11.231042
624 11.232877
624.5 11.261194
625 11.256071
625.5 11.232515
626 11.25581
626.5 11.260976
627 11.260185
627.5 11.256909
628 11.263625
628.5 11.261447
629 11.283232
629.5 11.262959
630 11.270563
630.5 11.272798
631 11.260498
631.5 11.267785
632 11.286262
632.5 11.282142
633 11.262697
633.5 11.27027
634 11.260813
634.5 11.294004
635 11.290837
635.5 11.276286
636 11.302701
636.5 11.316467
637 11.3053
637.5 11.272953
638 11.284748
638.5 11.301166
639 11.296392
639.5 11.293528
640 11.28323
640.5 11.302693
641 11.299309
641.5 11.310256
642 11.300863
642.5 11.321713
643 11.310735
643.5 11.31828
644 11.299808
644.5 11.321525
645 11.302756
645.5 11.309171
646 11.308037
646.5 11.310728
647 11.334545
647.5 11.357956
648 11.343363
648.5 11.311329
649 11.33348
649.5 11.337131
650 11.331328
650.5 11.325484
651 11.342207
651.5 11.348733
652 11.330939
652.5 11.352113
653 11.347467
653.5 11.377878
654 11.350445
654.5 11.356536
655 11.356665
655.5 11.356362
656 11.348251
656.5 11.377919
657 11.387537
657.5 11.35791
658 11.359089
658.5 11.367843
659 11.388296
659.5 11.356773
660 11.399134
660.5 11.382218
661 11.362348
661.5 11.364292
662 11.366189
662.5 11.378419
663 11.378009
663.5 11.381981
664 11.407297
664.5 11.390646
665 11.383711
665.5 11.402079
666 11.400613
666.5 11.405569
667 11.400818
667.5 11.408651
668 11.384902
668.5 11.406694
669 11.409924
669.5 11.406561
670 11.434246
670.5 11.394689
671 11.450625
671.5 11.409525
672 11.431607
672.5 11.438631
673 11.402678
673.5 11.415831
674 11.427284
674.5 11.460862
675 11.43555
675.5 11.444029
676 11.43079
676.5 11.417309
677 11.45609
677.5 11.460564
678 11.451083
678.5 11.436101
679 11.449759
679.5 11.42574
680 11.465423
680.5 11.467879
681 11.460514
681.5 11.479978
682 11.456511
682.5 11.45345
683 11.467298
683.5 11.472902
684 11.456432
684.5 11.47757
685 11.465825
685.5 11.485339
686 11.482348
686.5 11.496382
687 11.477448
687.5 11.485283
688 11.480226
688.5 11.484716
689 11.493365
689.5 11.480168
690 11.504076
690.5 11.51178
691 11.486143
691.5 11.524862
692 11.48703
692.5 11.507342
693 11.49861
693.5 11.471539
694 11.495148
694.5 11.509678
695 11.527993
695.5 11.490799
696 11.509407
696.5 11.495633
697 11.513929
697.5 11.490441
698 11.523218
698.5 11.496358
699 11.509936
699.5 11.520272
700 11.518571
700.5 11.526919
701 11.524678
701.5 11.522675
702 11.530733
702.5 11.547437
703 11.533388
703.5 11.527976
704 11.531851
704.5 11.560087
705 11.549618
705.5 11.536743
706 11.569761
706.5 11.534969
707 11.544582
707.5 11.518049
708 11.536808
708.5 11.531867
709 11.55834
709.5 11.567181
710 11.548354
710.5 11.573821
711 11.553695
711.5 11.55742
712 11.57935
712.5 11.583036
713 11.561851
713.5 11.561695
714 11.599165
714.5 11.56545
715 11.598458
715.5 11.563036
716 11.584868
716.5 11.59651
717 11.602923
717.5 11.604509
718 11.592957
718.5 11.627246
719 11.584248
719.5 11.592855
720 11.62439
720.5 11.622775
721 11.595072
721.5 11.618043
722 11.603358
722.5 11.6165
723 11.621053
723.5 11.609834
724 11.614705
724.5 11.659091
725 11.65649
725.5 11.650674
726 11.647348
726.5 11.647118
727 11.631449
727.5 11.663269
728 11.653859
728.5 11.632036
729 11.64175
729.5 11.666992
730 11.657186
730.5 11.686204
731 11.670916
731.5 11.656582
732 11.670097
732.5 11.681686
733 11.679652
733.5 11.665418
734 11.687365
734.5 11.694913
735 11.710456
735.5 11.680032
736 11.687916
736.5 11.690333
737 11.727636
737.5 11.699667
738 11.739169
738.5 11.748517
739 11.704071
739.5 11.715009
740 11.721818
740.5 11.74542
741 11.735522
741.5 11.741275
742 11.754543
742.5 11.718497
743 11.719242
743.5 11.784341
744 11.769678
744.5 11.72822
745 11.758397
745.5 11.760358
746 11.764779
746.5 11.744487
747 11.743706
747.5 11.766356
748 11.765884
748.5 11.773536
749 11.803082
749.5 11.773783
750 11.761296
750.5 11.786642
751 11.787959
751.5 11.765844
752 11.793612
752.5 11.802815
753 11.807138
753.5 11.800492
754 11.77128
754.5 11.808249
755 11.864612
755.5 11.82322
756 11.829668
756.5 11.835531
757 11.87292
757.5 11.812352
758 11.833738
758.5 11.809758
759 11.848298
759.5 11.855207
760 11.845656
760.5 11.878374
761 11.844571
761.5 11.894219
762 11.884099
762.5 11.874705
763 11.847623
763.5 11.888012
764 11.889804
764.5 11.872248
765 11.883978
765.5 11.885517
766 11.902549
766.5 11.88457
767 11.92817
767.5 11.908469
768 11.928919
768.5 11.908869
769 11.912487
769.5 11.903876
770 11.931352
770.5 11.919259
771 11.88316
771.5 11.927828
772 11.929337
772.5 11.908229
773 11.962237
773.5 11.945957
774 11.915308
774.5 11.948583
775 11.902069
775.5 11.953318
776 11.987032
776.5 11.967468
777 11.942986
777.5 11.971858
778 11.933305
778.5 11.960959
779 11.978936
779.5 11.948308
780 11.972617
780.5 11.977029
781 11.982865
781.5 11.965636
782 12.003507
782.5 11.950272
783 11.969014
783.5 11.994924
784 12.004655
784.5 12.037525
785 12.013655
785.5 12.007749
786 12.038612
786.5 11.993273
787 12.036908
787.5 12.04803
788 12.100673
788.5 12.026968
789 12.015831
789.5 12.057063
790 12.028383
790.5 12.01157
791 12.029328
791.5 12.023532
792 12.032134
792.5 12.079292
793 12.086597
793.5 12.087998
794 12.064634
794.5 12.090087
795 12.090541
795.5 12.09461
796 12.077636
796.5 12.097571
797 12.035478
797.5 12.107196
798 12.077408
798.5 12.100954
799 12.076097
799.5 12.049905
800 12.108909
800.5 12.092629
801 12.09298
801.5 12.125048
802 12.083448
802.5 12.082072
803 12.098981
803.5 12.131216
804 12.127908
804.5 12.120298
805 12.140382
805.5 12.124183
806 12.149236
806.5 12.150576
807 12.155844
807.5 12.120366
808 12.166895
808.5 12.168543
809 12.16602
809.5 12.155451
810 12.093356
810.5 12.192937
811 12.173873
811.5 12.15286
812 12.237645
812.5 12.159304
813 12.184723
813.5 12.183617
814 12.140188
814.5 12.170047
815 12.168849
815.5 12.124489
816 12.177914
816.5 12.148748
817 12.150511
817.5 12.188169
818 12.190443
818.5 12.171928
819 12.213228
819.5 12.163213
820 12.209032
820.5 12.173762
821 12.202153
821.5 12.102722
822 12.136386
822.5 12.133499
823 12.142084
823.5 12.184878
824 12.17496
824.5 12.168849
825 12.164838
825.5 12.168456
826 12.135123
826.5 12.151032
827 12.119151
827.5 12.202284
828 12.234062
828.5 12.122957
829 12.100254
829.5 12.14377
830 12.160969
830.5 12.092146
831 12.074853
831.5 12.122668
832 12.119149
832.5 12.172632
833 12.090843
833.5 12.143056
834 12.127759
834.5 12.079112
835 12.035895
835.5 12.017754
836 12.042004
836.5 12.113
837 12.061392
837.5 12.045323
838 12.063532
838.5 12.094877
839 11.979002
839.5 12.055753
840 12.052795
840.5 12.026843
841 11.962275
841.5 12.081387
842 11.945928
842.5 12.028404
843 11.973068
843.5 11.936861
844 12.007762
844.5 12.019102
845 12.025566
845.5 12.015577
846 11.995743
846.5 12.064905
847 12.026133
847.5 12.08301
848 11.978358
848.5 12.050794
849 12.026598
849.5 11.98335
850 12.120185
850.5 12.00944
851 12.118342
851.5 12.024505
852 12.053156
852.5 12.068608
853 12.068288
853.5 12.049083
854 11.987683
854.5 12.144225
855 12.065186
855.5 11.992637
856 12.000158
856.5 12.084071
857 12.092949
857.5 12.012278
858 12.080569
858.5 12.007707
859 12.051126
859.5 12.268855
860 12.064686
860.5 12.04325
861 8.906387
861.5 9.082743
862 9.015664
862.5 9.074517
863 8.893152
863.5 8.866535
864 9.186678
864.5 9.10295
865 9.183788
865.5 8.794583
866 9.164478
866.5 8.910947
867 9.18199
867.5 9.03897
868 9.113524
868.5 9.083532
869 9.119894
869.5 9.115451
870 8.98462
870.5 9.248636
871 9.04291
871.5 9.201563
872 9.077357
872.5 8.981939
873 9.110598
873.5 9.080634
874 9.222494
874.5 8.897094
875 9.12393
875.5 8.814766
876 9.238224
876.5 8.947437
877 9.209938
877.5 9.064716
878 9.206484
878.5 9.102979
879 9.162021
879.5 9.288058
880 8.962551
880.5 9.287786
881 9.104381
881.5 9.304791
882 9.085762
882.5 9.260362
883 9.192535
883.5 9.110505
884 9.317369
884.5 9.054004
885 9.344038
885.5 9.070731
886 9.30639
886.5 8.982676
887 9.271587
887.5 9.129984
888 9.267619
888.5 9.249687
889 9.05934
889.5 9.325988
890 9.098005
890.5 9.267188
891 9.080941
891.5 9.332147
892 9.10366
892.5 9.343211
893 9.155954
893.5 9.239675
894 9.248314
894.5 9.159293
895 9.38895
895.5 9.167122
896 9.431051
896.5 9.140182
897 9.329429
897.5 9.219392
898 9.185452
898.5 9.266913
899 9.338164
899.5 9.274653
900 9.019323
900.5 9.388702
901 9.069166
901.5 9.35887
902 9.049056
902.5 9.225204
903 9.168386
903.5 9.390302
904 9.27825
904.5 9.238169
905 9.416001
905.5 9.189644
906 9.391822
906.5 9.195136
907 9.329864
907.5 9.238745
908 9.396489
908.5 9.318557
909 9.195769
909.5 9.403364
910 9.181968
910.5 9.43372
911 9.10034
911.5 9.333137
912 9.068233
912.5 9.446353
913 9.321526
913.5 9.321173
914 9.36296
914.5 9.156461
915 9.505966
915.5 9.205583
916 9.470074
916.5 9.168212
917 9.487242
917.5 9.306487
918 9.402756
918.5 9.401605
919 9.303134
919.5 9.419979
920 9.221317
920.5 9.379074
921 9.205504
921.5 9.536695
922 9.379026
922.5 9.458353
923 9.351021
923.5 9.279811
924 9.373712
924.5 9.339542
925 9.434943
925.5 9.162851
926 9.492263
926.5 9.357401
927 9.401449
927.5 9.290681
928 9.562862
928.5 9.458993
929 9.546317
929.5 9.526695
930 9.389783
930.5 9.514231
931 9.319101
931.5 9.422192
932 9.299467
932.5 9.470338
933 9.403028
933.5 9.368185
934 9.447721
934.5 9.277487
935 9.531614
935.5 9.271995
936 9.55554
936.5 9.123903
937 9.503941
937.5 9.246892
938 9.57732
938.5 9.368918
939 9.437172
939.5 9.465912
940 9.391452
940.5 9.449297
941 9.403402
941.5 9.567515
942 9.313644
942.5 9.511497
943 9.424578
943.5 9.537615
944 9.472245
944.5 9.417485
945 9.642272
945.5 9.318037
946 9.652076
946.5 9.272208
947 9.650958
947.5 9.384587
948 9.507512
948.5 9.360862
949 9.413765
949.5 9.542831
950 9.527821
950.5 9.550886
951 9.282979
951.5 9.698045
952 9.453551
952.5 9.652784
953 9.445497
953.5 9.599374
954 9.513477
954.5 9.473476
955 9.578675
955.5 9.425905
956 9.635341
956.5 9.470953
957 9.614199
957.5 9.401846
958 9.524394
958.5 9.631323
959 9.611589
959.5 9.474332
960 9.316199
960.5 9.692963
961 9.45427
961.5 9.642591
962 9.336679
962.5 9.69704
963 9.500075
963.5 9.606657
964 9.464681
964.5 9.584953
965 9.671527
965.5 9.637643
966 9.713529
966.5 9.506598
967 9.752665
967.5 9.54086
968 9.714243
968.5 9.513609
969 9.601545
969.5 9.594882
970 9.572725
970.5 9.649798
971 9.381593
971.5 9.696694
972 9.404598
972.5 9.659753
973 9.429007
973.5 9.702829
974 9.523177
974.5 9.634338
975 9.648887
975.5 9.625412
976 9.657009
976.5 9.474438
977 9.754664
977.5 9.568394
978 9.672556
978.5 9.539203
979 9.705231
979.5 9.717789
980 9.602822
980.5 9.793853
981 9.522311
981.5 9.757533
982 9.398137
982.5 9.827492
983 9.458406
983.5 9.681153
984 9.679139
984.5 9.750838
985 9.751343
985.5 9.412741
986 9.796811
986.5 9.62873
987 9.747393
987.5 9.509782
988 9.86985
988.5 9.643125
989 9.627321
989.5 9.721626
990 9.6503
990.5 9.770317
991 9.8147
991.5 9.892222
992 9.566317
992.5 9.818456
993 9.697311
993.5 9.762785
994 9.495143
994.5 9.589461
995 9.762807
995.5 9.633866
996 9.857376
996.5 9.493956
997 9.892587
997.5 9.573914
998 9.793673
998.5 9.631517
999 9.799159
999.5 9.71206
1000 9.863602
1000.5 9.78703
1001 9.647147
1001.5 9.775534
1002 9.704656
1002.5 9.93407
1003 9.797511
1003.5 9.754507
1004 9.725269
1004.5 9.797576
1005 9.813143
1005.5 9.675299
1006 9.844427
1006.5 9.601514
1007 9.798624
1007.5 9.608325
1008 9.877051
1008.5 9.631414
1009 9.972829
1009.5 9.745409
1010 9.772617
1010.5 9.743694
1011 9.603357
1011.5 9.927374
1012 9.791332
1012.5 9.965748
1013 9.72415
1013.5 9.960876
1014 9.848142
1014.5 9.852777
1015 9.855351
1015.5 9.797464
1016 9.918011
1016.5 9.668077
1017 9.999848
1017.5 9.75039
1018 10.020938
1018.5 9.639937
1019 9.875935
1019.5 9.792856
1020 9.827464
1020.5 9.915932
1021 9.820002
1021.5 9.904537
1022 9.694156
1022.5 10.002777
1023 9.781916
1023.5 9.933814
1024 9.850805
1024.5 9.86301
1025 9.922749
1025.5 9.959056
1026 9.921663
1026.5 9.742078
1027 9.916802
1027.5 9.809688
1028 10.016355
1028.5 9.780567
1029 9.846008
1029.5 9.88426
1030 9.952166
1030.5 9.880196
1031 9.779839
1031.5 10.02688
1032 9.838407
1032.5 9.999209
1033 9.695418
1033.5 10.12054
1034 9.815556
1034.5 10.086307
1035 9.912332
1035.5 9.899276
1036 9.894951
1036.5 9.804822
1037 10.006042
1037.5 9.959688
1038 10.171514
1038.5 9.975682
1039 10.130069
1039.5 9.893504
1040 9.853961
1040.5 9.997804
1041 9.868107
1041.5 10.13041
1042 9.810734
1042.5 10.15848
1043 9.754156
1043.5 10.128611
1044 9.896167
1044.5 10.035574
1045 9.963764
1045.5 9.901053
1046 10.004918
1046.5 9.971882
1047 10.161085
1047.5 9.784862
1048 10.13735
1048.5 9.998517
1049 10.160039
1049.5 9.999106
1050 10.13303
1050.5 10.104432
1051 9.981775
1051.5 10.1553
1052 9.852539
1052.5 10.127091
1053 9.861737
1053.5 10.156641
1054 9.974296
1054.5 10.084902
1055 10.041323
1055.5 10.058174
1056 10.076764
1056.5 9.831627
1057 10.182556
1057.5 10.002287
1058 10.152082
1058.5 10.007528
1059 10.244314
1059.5 10.051967
1060 10.152361
1060.5 10.093693
1061 10.034604
1061.5 10.21964
1062 10.177344
1062.5 10.217485
1063 10.111902
1063.5 10.253503
1064 10.022549
1064.5 10.189143
1065 10.049599
1065.5 10.05503
1066 10.134972
1066.5 10.09359
1067 10.20867
1067.5 9.930594
1068 10.27559
1068.5 9.909607
1069 10.309259
1069.5 10.015145
1070 10.244196
1070.5 10.123568
1071 10.162451
1071.5 10.148868
1072 10.201828
1072.5 10.315416
1073 10.008745
1073.5 10.356058
1074 10.180565
1074.5 10.363413
1075 10.163914
1075.5 10.310234
1076 10.32782
1076.5 10.159379
1077 10.241766
1077.5 10.027873
1078 10.332789
1078.5 10.214454
1079 10.292392
1079.5 10.043874
1080 10.374658
1080.5 10.249484
1081 10.232183
1081.5 10.224941
1082 10.106769
1082.5 10.469327
1083 10.257355
1083.5 10.390049
1084 10.137451
1084.5 10.344695
1085 10.246164
1085.5 10.366485
1086 10.311914
1086.5 10.235748
1087 10.283728
1087.5 10.134131
1088 10.296892
1088.5 10.168231
1089 10.423346
1089.5 10.283238
1090 10.363422
1090.5 10.190744
1091 10.234879
1091.5 10.455202
1092 10.314633
1092.5 10.451726
1093 10.132062
1093.5 10.436677
1094 10.271153
1094.5 10.520715
1095 10.190433
1095.5 10.438048
1096 10.287886
1096.5 10.38958
1097 10.366913
1097.5 10.295032
1098 10.385817
1098.5 10.209487
1099 10.535423
1099.5 10.322414
1100 10.454309
1100.5 10.359166
1101 10.554315
1101.5 10.358491
1102 10.345539
1102.5 10.572968
1103 10.340638
1103.5 10.565159
1104 10.223925
1104.5 10.535718
1105 10.214448
1105.5 10.58322
1106 10.488701
1106.5 10.493975
1107 10.569919
1107.5 10.337584
1108 10.573635
1108.5 10.404042
1109 10.690904
1109.5 10.389394
1110 10.562976
1110.5 10.483371
1111 10.518909
1111.5 10.556282
1112 10.432791
1112.5 10.651764
1113 10.340851
1113.5 10.718045
1114 10.270903
1114.5 10.627468
1115 10.335512
1115.5 10.541747
1116 10.415316
1116.5 10.427889
1117 10.607597
1117.5 10.425244
1118 10.584939
1118.5 10.329087
1119 10.595604
1119.5 10.360517
1120 10.673219
1120.5 10.392555
1121 10.546247
1121.5 10.593255
1122 10.62218
1122.5 10.813382
1123 10.533357
1123.5 10.791513
1124 10.470633
1124.5 10.459068
1125 10.322583
1125.5 10.678394
1126 10.648148
1126.5 10.680913
1127 10.720368
1127.5 10.558303
1128 10.788541
1128.5 10.610884
1129 10.712297
1129.5 10.483496
1130 10.824744
1130.5 10.533079
1131 10.669915
1131.5 10.518701
1132 10.437661
1132.5 10.538498
1133 10.478913
1133.5 10.636323
1134 10.46939
1134.5 10.877106
1135 10.615723
1135.5 10.840805
1136 10.659508
1136.5 10.766887
1137 10.787654
1137.5 10.663382
1138 10.771431
1138.5 10.611384
1139 10.781304
1139.5 10.446507
1140 10.82096
1140.5 10.598916
1141 10.823516
1141.5 10.681474
1142 10.625383
1142.5 10.710268
1143 10.705053
1143.5 10.863881
1144 10.572433
1144.5 10.973719
1145 10.776351
1145.5 10.909071
1146 10.756527
1146.5 10.871813
1147 10.827366
1147.5 10.794024
1148 10.919223
1148.5 10.610779
1149 10.995317
1149.5 10.684093
1150 10.847789
1150.5 10.598192
1151 10.647283
1151.5 10.678996
1152 10.79699
1152.5 10.744338
1153 10.545629
1153.5 10.991082
1154 10.779041
1154.5 11.011985
1155 10.755631
1155.5 11.076635
1156 10.846719
1156.5 10.95752
1157 10.881739
1157.5 10.955966
1158 10.984175
1158.5 10.995211
1159 11.010125
1159.5 10.794888
1160 10.95179
1160.5 10.861902
1161 10.98301
1161.5 10.885129
1162 10.858642
1162.5 11.068968
1163 10.966578
1163.5 10.984384
1164 10.72311
1164.5 11.019388
1165 10.717302
1165.5 11.075164
1166 10.811058
1166.5 11.043856
1167 10.890628
1167.5 11.098824
1168 10.99408
1168.5 10.930331
1169 11.116169
1169.5 10.850365
1170 11.101909
1170.5 10.935774
1171 10.957389
1171.5 10.917562
1172 11.039485
1172.5 11.040986
1173 10.958906
1173.5 11.204722
1174 10.939269
1174.5 11.167177
1175 10.763721
1175.5 11.179939
1176 10.817696
1176.5 11.199179
1177 11.061099
1177.5 11.000205
1178 11.053669
1178.5 10.90825
1179 11.201532
1179.5 10.949579
1180 11.167392
1180.5 10.920397
1181 11.116828
1181.5 11.027987
1182 11.077861
1182.5 11.136408
1183 11.066254
1183.5 11.15713
1184 11.060914
1184.5 11.125191
1185 11.011007
1185.5 11.162838
1186 11.007953
1186.5 11.074861
1187 10.923285
1187.5 10.961884
1188 11.009294
1188.5 10.974731
1189 10.948057
1189.5 10.724922
1190 10.925954
1190.5 11.171396
1191 11.160073
1191.5 11.040787
1192 11.057734
1192.5 11.288456
1193 11.100644
1193.5 11.199503
1194 10.921124
1194.5 11.337056
1195 11.039138
1195.5 11.320062
1196 11.167616
1196.5 11.149562
1197 11.163365
1197.5 11.179987
1198 11.214721
1198.5 11.103945
1199 11.387133
1199.5 11.194458
1200 11.333215
1200.5 11.274721
1201 11.360937
1201.5 11.309803
1202 11.274675
1202.5 11.390682
1203 11.154639
1203.5 11.400078
1204 11.15354
1204.5 11.342611
1205 11.102299
1205.5 11.414545
1206 11.160678
1206.5 11.341608
1207 11.301459
1207.5 11.244489
1208 11.357976
1208.5 11.179508
1209 11.432241
1209.5 11.297173
1210 11.434034
1210.5 11.286642
1211 11.4035
1211.5 11.385383
1212 11.452515
1212.5 11.39706
1213 11.200605
1213.5 11.562493
1214 11.367574
1214.5 11.53397
1215 11.267079
1215.5 11.449662
1216 11.387765
1216.5 11.492974
1217 11.325377
1217.5 11.276856
1218 11.491308
1218.5 11.451899
1219 11.527929
1219.5 11.188129
1220 11.545421
1220.5 11.357248
1221 11.568305
1221.5 11.347512
1222 11.554008
1222.5 11.427077
1223 11.526413
1223.5 11.551158
1224 11.457187
1224.5 11.676043
1225 11.464016
1225.5 11.548528
1226 11.354608
1226.5 11.580146
1227 11.438099
1227.5 11.553583
1228 11.575484
1228.5 11.342703
1229 11.639997
1229.5 11.431936
1230 11.62334
1230.5 11.350285
1231 11.665738
1231.5 11.484767
1232 11.697137
1232.5 11.623251
1233 11.54391
1233.5 11.592042
1234 11.443698
1234.5 11.676848
1235 11.560229
1235.5 11.723551
1236 11.490472
1236.5 11.72488
1237 11.569143
1237.5 11.601347
1238 11.702093
1238.5 11.601935
1239 11.819427
1239.5 11.53587
1240 11.741992
1240.5 11.445969
1241 11.775779
1241.5 11.583425
1242 11.657794
1242.5 11.559793
1243 11.527497
1243.5 11.606417
1244 11.616719
1244.5 11.824934
1245 11.564899
1245.5 11.887935
1246 11.707594
1246.5 11.778389
1247 11.682431
1247.5 11.815287
1248 11.785864
1248.5 11.753623
1249 11.878097
1249.5 11.705136
1250 11.886764
1250.5 11.762264
1251 11.838789
1251.5 11.69501
1252 11.663961
1252.5 11.756303
1253 11.67023
1253.5 11.747044
1254 11.64538
1254.5 11.930422
1255 11.701032
1255.5 11.939767
1256 11.668431
1256.5 11.914717
1257 11.738852
1257.5 11.960339
1258 11.795731
1258.5 11.825558
1259 11.912999
1259.5 11.766061
1260 11.937037
1260.5 11.811724
1261 11.967362
1261.5 11.809725
1262 12.02834
1262.5 11.798685
1263 11.884094
1263.5 11.959653
1264 11.847191
1264.5 11.978189
1265 11.688881
1265.5 11.999223
1266 11.640002
1266.5 12.011046
1267 11.814723
1267.5 11.982488
1268 11.912668
1268.5 11.888029
1269 12.037581
1269.5 11.939763
1270 12.023498
1270.5 11.698885
1271 12.044275
1271.5 11.947729
1272 12.000559
1272.5 12.002596
1273 12.098408
1273.5 11.99484
1274 11.905528
1274.5 12.173819
1275 11.824025
1275.5 12.121375
1276 11.873928
1276.5 12.072717
1277 11.734997
1277.5 12.10997
1278 12.05094
1278.5 12.007441
1279 12.078206
1279.5 11.81749
1280 12.151381
1280.5 12.061361
1281 12.127293
1281.5 11.820939
1282 12.10731
1282.5 11.987446
1283 12.095188
1283.5 12.053189
1284 12.042938
1284.5 12.158123
1285 12.071136
1285.5 12.180611
1286 11.992267
1286.5 12.240716
1287 12.103257
1287.5 12.198339
1288 12.062128
1288.5 12.05558
1289 12.139717
1289.5 12.242337
1290 12.156484
1290.5 11.977948
1291 12.294737
1291.5 11.962754
1292 12.261219
1292.5 12.024637
1293 12.244391
1293.5 12.112213
1294 12.310299
1294.5 12.203342
1295 12.107428
1295.5 12.269457
1296 12.120704
1296.5 12.434178
1297 12.157702
1297.5 12.219727
1298 12.148701
1298.5 12.265162
1299 12.269542
1299.5 12.149615
1300 12.400513
1300.5 12.084067
1301 12.406821
1301.5 11.962058
1302 12.374029
1302.5 12.07776
1303 12.331547
1303.5 12.194429
1304 12.294287
1304.5 12.22477
1305 12.126478
1305.5 12.423921
1306 12.196284
1306.5 12.389742
1307 12.170608
1307.5 12.430003
1308 12.268262
1308.5 12.337644
1309 12.303659
1309.5 12.27184
1310 12.538412
1310.5 12.252951
1311 12.522629
1311.5 12.170781
1312 12.459685
1312.5 12.276629
1313 12.383824
1313.5 12.14454
1314 12.326503
1314.5 12.430324
1315 12.329091
1315.5 12.440823
1316 12.150526
1316.5 12.547822
1317 12.357448
1317.5 12.476125
1318 12.347356
1318.5 12.528454
1319 12.413092
1319.5 12.423339
1320 12.543772
1320.5 12.423229
1321 12.62989
1321.5 12.441339
1322 12.541132
1322.5 12.415262
1323 12.57515
1323.5 12.570763
1324 12.573361
1324.5 12.546022
1325 12.455293
1325.5 12.776399
1326 12.587866
1326.5 12.595502
1327 12.201511
1327.5 12.58879
1328 12.315676
1328.5 12.618615
1329 12.47943
1329.5 12.484602
1330 12.599923
1330.5 12.519002
1331 12.66049
1331.5 12.543517
1332 12.694646
1332.5 12.46528
1333 12.714399
1333.5 12.567119
1334 12.581401
1334.5 12.586686
1335 12.528107
1335.5 12.732604
1336 12.442389
1336.5 12.736875
1337 12.356384
1337.5 12.733218
1338 12.440359
1338.5 12.681085
1339 12.548096
1339.5 12.698144
1340 12.778366
1340.5 12.650087
1341 12.860405
1341.5 12.528987
1342 12.86478
1342.5 12.743616
1343 12.965837
1343.5 12.543939
1344 12.654088
1344.5 12.738654
1345 12.535663
1345.5 12.769541
1346 12.644987
1346.5 12.818696
1347 12.568617
1347.5 12.934585
1348 12.82115
1348.5 13.034859
1349 12.801027
1349.5 12.643223
1350 12.725501
1350.5 12.611032
1351 12.843986
1351.5 12.705915
1352 12.822345
1352.5 12.598135
1353 12.827553
1353.5 12.516554
1354 12.622359
1354.5 12.712458
1355 12.962879
1355.5 13.064164
1356 12.927739
1356.5 12.844525
1357 12.900952
1357.5 13.199084
1358 12.772158
1358.5 12.797593
1359 12.854585
1359.5 12.90832
1360 12.825382
1360.5 12.684615
1361 12.668076
1361.5 12.640449
1362 13.229012
1362.5 13.245791
1363 13.130824
1363.5 12.338992
1364 12.641838
1364.5 12.801048
1365 13.249624
1365.5 13.246071
1366 12.964824
1366.5 12.858997
1367 12.632649
1367.5 13.115607
1368 12.867524
1368.5 13.456778
1369 12.950628
1369.5 12.814225
1370 12.710713
1370.5 12.927382
1371 13.210525
1371.5 12.960994
1372 13.346657
1372.5 13.082384
1373 13.240056
1373.5 12.784512
1374 13.056454
1374.5 13.122272
1375 12.974669
1375.5 12.99317
1376 12.799677
1376.5 13.222213
1377 13.089943
1377.5 13.008067
1378 12.744373
1378.5 13.44409
1379 13.103043
1379.5 12.845242
1380 12.791543
1380.5 13.38646
1381 13.365453
1381.5 12.703642
1382 12.830375
1382.5 13.160338
1383 13.645156
1383.5 13.112549
1384 12.950897
1384.5 12.870006
1385 13.260674
1385.5 13.384503
1386 13.346654
1386.5 13.183853
1387 12.652946
1387.5 13.086453
1388 13.254164
1388.5 13.48322
1389 13.201195
1389.5 13.449255
1390 13.275668
1390.5 13.330239
1391 13.058588
1391.5 12.787747
1392 13.279289
1392.5 13.471028
1393 13.663061
1393.5 12.97752
1394 13.115023
1394.5 12.821504
1395 13.36229
1395.5 13.261759
1396 13.320297
1396.5 13.773042
1397 13.407932
1397.5 13.476093
1398 12.994808
1398.5 13.212393
1399 12.966993
1399.5 13.139543
1400 13.059427
1400.5 13.510165
1401 13.528287
1401.5 13.767962
1402 13.556622
1402.5 13.348827
1403 13.448267
1403.5 13.009852
1404 13.226373
1404.5 13.398694
1405 13.763057
1405.5 13.597164
1406 13.120344
1406.5 13.321553
1407 13.388155
1407.5 13.831121
1408 13.102522
1408.5 13.283575
1409 13.361473
1409.5 13.755457
1410 13.388735
1410.5 13.428
1411 13.40602
1411.5 13.414818
1412 13.569033
1412.5 13.0927
1413 13.312137
1413.5 13.234201
1414 13.613705
1414.5 13.563401
1415 13.819405
1415.5 13.588177
1416 13.519941
1416.5 13.418587
1417 13.448089
1417.5 13.728581
1418 13.395834
1418.5 13.608615
1419 13.614184
1419.5 13.913503
1420 13.640887
1420.5 13.755488
1421 13.468234
1421.5 13.365217
1422 13.538681
1422.5 13.490736
1423 13.726443
1423.5 13.457493
1424 13.772571
1424.5 13.441774
1425 13.691697
1425.5 13.562755
1426 13.608749
1426.5 13.565238
1427 13.612691
1427.5 13.823631
1428 13.770965
1428.5 13.92082
1429 13.597392
1429.5 13.733633
1430 13.466594
1430.5 13.646315
1431 13.672556
1431.5 13.748434
1432 13.809554
1432.5 13.67227
1433 13.870372
1433.5 13.488404
1434 13.854836
1434.5 13.571027
1435 13.824201
1435.5 13.661522
1436 13.748473
1436.5 13.629276
1437 13.651523
1437.5 13.955396
1438 13.69921
1438.5 13.794683
1439 13.691397
1439.5 13.934541
1440 13.664474
1440.5 13.838862
1441 13.909815
1441.5 13.748962
1442 13.975254
1442.5 13.812166
1443 14.024821
1443.5 13.723363
1444 13.889703
1444.5 13.374208
1445 13.867167
1445.5 13.88007
1446 13.997252
1446.5 13.913688
1447 13.758345
1447.5 13.906799
1448 13.84417
1448.5 14.030625
1449 13.670374
1449.5 13.887194
1450 13.863188
1450.5 14.091481
1451 14.061783
1451.5 13.929881
1452 14.13759
1452.5 14.065939
1453 14.244792
1453.5 13.94138
1454 14.117672
1454.5 13.941556
1455 14.157358
1455.5 13.849078
1456 13.942863
1456.5 14.040074
1457 14.022765
1457.5 14.090136
1458 13.826105
1458.5 14.146845
1459 13.987525
1459.5 14.053154
1460 13.928492
1460.5 14.171195
1461 13.999672
1461.5 14.059356
1462 13.999699
1462.5 14.027086
1463 14.195102
1463.5 14.046918
1464 14.163908
1464.5 13.994075
1465 14.157945
1465.5 14.071617
1466 14.16955
1466.5 14.187221
1467 14.089036
1467.5 14.20514
1468 13.946961
1468.5 14.065512
1469 13.77679
1469.5 14.303805
1470 13.92107
1470.5 14.317542
1471 14.170724
1471.5 14.261624
1472 14.250258
1472.5 14.364107
1473 14.372081
1473.5 14.284973
1474 14.5138
1474.5 14.221735
1475 14.415602
1475.5 14.12861
1476 14.199616
1476.5 14.309269
1477 14.248756
1477.5 14.510582
1478 14.168073
1478.5 14.422889
1479 14.119413
1479.5 14.441592
1480 14.302532
1480.5 14.347307
1481 14.275272
1481.5 14.390405
1482 14.461581
1482.5 14.366351
1483 14.254233
1483.5 14.067078
1484 14.400326
1484.5 14.371519
1485 14.539114
1485.5 14.320041
1486 14.474842
1486.5 14.499651
1487 14.509808
1487.5 14.60661
1488 14.313285
1488.5 14.624625
1489 14.519465
1489.5 14.584522
1490 14.482677
1490.5 14.546064
1491 14.45204
1491.5 14.47742
1492 14.448676
1492.5 14.20089
1493 14.512269
1493.5 14.544848
1494 14.635861
1494.5 14.30534
1495 14.713119
1495.5 14.404657
1496 14.755923
1496.5 14.522
1497 14.468236
1497.5 14.582787
1498 14.564958
1498.5 14.628147
1499 14.433873
1499.5 14.725485
1500 14.52776
1500.5 14.646396
1501 14.63251
1501.5 14.602034
1502 14.661825
1502.5 14.640853
1503 14.671868
1503.5 14.509133
1504 14.845072
1504.5 14.489335
1505 14.951757
1505.5 14.698634
1506 14.905789
1506.5 14.626104
1507 14.737733
1507.5 14.705206
1508 14.583457
1508.5 14.821652
1509 14.572211
1509.5 14.719813
1510 14.660479
1510.5 14.800617
1511 14.715575
1511.5 14.797646
1512 14.700292
1512.5 14.608987
1513 14.783014
1513.5 14.670761
1514 14.932142
1514.5 14.596568
1515 14.903639
1515.5 14.770286
1516 14.941919
1516.5 14.899279
1517 14.955252
1517.5 14.860295
1518 14.616431
1518.5 14.9205
1519 14.822464
1519.5 15.048453
1520 14.683518
1520.5 14.947946
1521 14.833592
1521.5 14.937018
1522 14.877176
1522.5 14.893703
1523 14.981204
1523.5 14.911181
1524 15.087938
1524.5 14.851598
1525 15.112706
1525.5 14.916989
1526 15.023006
1526.5 14.955978
1527 15.018493
1527.5 15.122654
1528 15.023892
1528.5 15.047979
1529 14.841574
1529.5 15.047178
1530 14.922234
1530.5 15.102263
1531 14.869119
1531.5 15.049426
1532 14.990821
1532.5 15.095459
1533 15.099443
1533.5 14.884186
1534 15.139231
1534.5 15.031953
1535 15.181525
1535.5 14.990543
1536 15.159509
1536.5 15.030041
1537 15.176222
1537.5 15.126498
1538 15.050372
1538.5 15.293841
1539 15.164556
1539.5 15.372856
1540 14.92341
1540.5 15.394786
1541 15.154624
1541.5 15.47866
1542 15.190655
1542.5 15.216725
1543 15.245178
1543.5 15.140443
1544 15.252489
1544.5 15.216844
1545 15.364489
1545.5 15.019746
1546 15.346195
1546.5 15.26283
1547 15.241309
1547.5 15.349698
1548 15.237677
1548.5 15.422066
1549 15.242277
1549.5 15.549521
1550 15.13166
1550.5 15.490831
1551 15.160599
1551.5 15.376092
1552 15.216634
1552.5 15.258962
1553 15.479697
1553.5 15.330876
1554 15.431543
1554.5 15.127036
1555 15.553552
1555.5 15.286899
1556 15.542056
1556.5 15.288654
1557 15.46431
1557.5 15.493402
1558 15.375432
1558.5 15.621386
1559 15.385295
1559.5 15.698138
1560 15.474284
1560.5 15.686716
1561 15.490496
1561.5 15.674612
1562 15.486471
1562.5 15.507314
1563 15.457174
1563.5 15.341465
1564 15.565519
1564.5 15.44167
1565 15.583816
1565.5 15.297753
1566 15.647224
1566.5 15.433346
1567 15.656362
1567.5 15.520352
1568 15.557075
1568.5 15.637206
1569 15.696569
1569.5 15.721834
1570 15.623772
1570.5 15.853283
1571 15.591779
1571.5 15.813288
1572 15.715161
1572.5 15.729544
1573 15.757947
1573.5 15.693022
1574 15.672724
1574.5 15.491056
1575 15.767726
1575.5 15.395939
1576 15.793413
1576.5 15.527198
1577 15.73232
1577.5 15.673488
1578 15.82204
1578.5 15.78315
1579 15.729755
1579.5 15.862875
1580 15.668812
1580.5 15.977965
1581 15.787975
1581.5 15.984017
1582 15.854074
1582.5 16.021757
1583 15.993416
1583.5 15.931077
1584 16.023056
1584.5 15.756457
1585 15.950015
1585.5 15.698032
1586 15.934995
1586.5 15.587765
1587 15.924054
1587.5 15.85564
1588 15.857078
1588.5 15.832636
1589 15.74381
1589.5 16.003603
1590 15.946439
1590.5 16.127026
1591 15.855035
1591.5 16.153578
1592 15.993512
1592.5 16.07931
1593 16.131237
1593.5 15.967414
1594 16.001341
1594.5 15.925272
1595 16.183351
1595.5 15.859878
1596 16.048142
1596.5 15.90714
1597 16.115579
1597.5 15.95439
1598 15.958256
1598.5 16.074872
1599 16.099164
1599.5 16.048287
1600 15.8086
1600.5 16.257907
1601 16.023703
1601.5 16.212633
1602 16.092104
1602.5 16.315077
1603 16.137494
1603.5 16.321421
1604 16.182536
1604.5 16.144381
1605 16.230586
1605.5 16.184218
1606 16.363797
1606.5 16.176185
1607 16.353188
1607.5 16.187918
1608 16.22123
1608.5 16.181578
1609 16.160634
1609.5 16.252901
1610 16.170524
1610.5 16.407114
1611 15.982656
1611.5 16.395596
1612 16.036199
1612.5 16.376743
1613 16.238713
1613.5 16.406567
1614 16.358793
1614.5 16.372737
1615 16.489524
1615.5 16.257329
1616 16.40632
1616.5 16.167986
1617 16.488616
1617.5 16.368178
1618 16.477542
1618.5 16.354135
1619 16.412657
1619.5 16.555375
1620 16.366149
1620.5 16.693212
1621 16.288882
1621.5 16.650796
1622 16.397625
1622.5 16.560967
1623 16.346939
1623.5 16.556916
1624 16.473445
1624.5 16.459469
1625 16.491425
1625.5 16.291083
1626 16.591461
1626.5 16.485755
1627 16.61904
1627.5 16.388492
1628 16.545677
1628.5 16.432282
1629 16.598037
1629.5 16.5859
1630 16.500762
1630.5 16.620812
1631 16.571671
1631.5 16.685387
1632 16.452986
1632.5 16.706252
1633 16.646926
1633.5 16.754232
1634 16.681503
1634.5 16.654064
1635 16.82343
1635.5 16.89091
1636 16.855949
1636.5 16.409843
1637 16.766976
1637.5 16.488816
1638 16.749801
1638.5 16.576745
1639 16.777728
1639.5 16.653211
1640 16.68359
1640.5 16.845149
1641 16.698234
1641.5 16.81509
1642 16.656725
1642.5 16.883907
1643 16.662423
1643.5 16.74822
1644 16.77596
1644.5 16.907738
1645 16.946362
1645.5 16.642609
1646 16.969544
1646.5 16.795801
1647 17.018023
1647.5 16.728181
1648 17.068854
1648.5 16.812494
1649 17.190975
1649.5 16.83007
1650 16.82125
1650.5 16.923831
1651 16.723493
1651.5 16.966587
1652 16.726743
1652.5 17.05416
1653 16.791874
1653.5 17.077158
1654 16.938172
1654.5 16.979821
1655 16.998196
1655.5 16.895156
1656 17.163783
1656.5 16.845199
1657 17.179158
1657.5 16.897018
1658 17.231807
1658.5 17.058223
1659 17.184189
1659.5 17.089109
1660 17.031506
1660.5 17.067152
1661 17.018287
1661.5 17.095336
1662 16.771024
1662.5 17.120381
1663 16.982737
1663.5 17.166209
1664 17.03734
1664.5 17.260171
1665 17.151052
1665.5 17.117684
1666 17.267817
1666.5 17.073224
1667 17.19638
1667.5 16.963391
1668 17.138228
1668.5 16.95976
1669 17.123516
1669.5 16.947503
1670 17.058706
1670.5 17.189056
1671 17.130677
1671.5 17.211813
1672 17.083175
1672.5 17.439872
1673 17.14931
1673.5 17.43214
1674 17.235239
1674.5 17.400797
1675 17.34947
1675.5 17.226583
1676 17.326072
1676.5 17.275205
1677 17.320669
1677.5 17.121468
1678 17.42195
1678.5 17.100403
1679 17.47624
1679.5 17.388262
1680 17.497596
1680.5 17.382795
1681 17.262396
1681.5 17.342879
1682 17.284866
1682.5 17.470761
1683 17.220496
1683.5 17.504911
1684 17.349799
1684.5 17.552154
1685 17.447042
1685.5 17.604046
1686 17.690526
1686.5 17.362575
1687 17.581829
1687.5 17.349511
1688 17.533149
1688.5 17.353514
1689 17.485197
1689.5 17.341292
1690 17.523044
1690.5 17.565757
1691 17.607784
1691.5 17.539123
1692 17.306425
1692.5 17.771125
1693 17.578261
1693.5 17.781882
1694 17.486592
1694.5 17.641319
1695 17.461112
1695.5 17.612599
1696 17.546663
1696.5 17.593342
1697 17.624116
1697.5 17.580096
1698 17.725834
1698.5 17.613256
1699 17.885107
1699.5 17.696778
1700 17.84824
1700.5 17.595093
1701 17.544471
1701.5 17.779098
1702 17.535074
1702.5 17.798978
1703 17.451118
1703.5 17.776236
1704 17.412317
1704.5 17.777534
1705 17.529656
1705.5 17.769057
1706 17.66647
1706.5 17.738436
1707 17.766169
1707.5 17.748713
1708 17.909856
1708.5 17.658451
1709 18.026839
1709.5 17.820528
1710 18.026443
1710.5 17.853794
1711 18.067199
1711.5 17.982954
1712 18.034323
1712.5 18.143605
1713 17.686951
1713.5 18.051386
1714 17.834617
1714.5 17.92894
1715 17.644544
1715.5 17.870276
1716 17.885102
1716.5 17.933042
1717 17.92323
1717.5 17.776364
1718 18.135795
1718.5 17.93202
1719 18.171954
1719.5 17.919686
1720 17.991282
1720.5 18.017134
1721 18.139218
1721.5 18.017855
1722 18.082346
1722.5 18.187909
1723 18.096191
1723.5 18.30361
1724 18.131825
1724.5 18.364523
1725 18.090141
1725.5 18.219332
1726 18.090652
1726.5 18.107238
1727 18.088233
1727.5 18.22571
1728 18.245713
1728.5 18.016838
1729 18.279392
1729.5 18.045768
1730 18.244025
1730.5 18.039121
1731 18.353297
1731.5 18.169218
1732 18.385994
1732.5 18.230301
1733 18.25227
1733.5 18.291703
1734 18.204047
1734.5 18.322052
1735 18.221095
1735.5 18.335052
1736 18.276167
1736.5 18.3661
1737 18.32962
1737.5 18.188992
1738 18.441817
1738.5 18.311836
1739 18.454005
1739.5 18.143761
1740 18.445055
1740.5 18.152867
1741 18.520005
1741.5 18.289591
1742 18.363841
1742.5 18.271933
1743 18.302487
1743.5 18.521152
1744 18.388715
1744.5 18.574508
1745 18.202938
1745.5 18.656218
1746 18.474008
1746.5 18.564034
1747 18.527378
1747.5 18.471797
1748 18.569906
1748.5 18.469283
1749 18.714988
1749.5 18.416502
1750 18.779828
1750.5 18.543914
1751 18.859786
1751.5 18.592529
1752 18.547843
1752.5 18.616229
1753 18.550567
1753.5 18.649039
1754 18.456282
1754.5 18.735553
1755 18.590702
1755.5 18.734758
1756 18.494935
1756.5 18.70726
1757 18.612121
1757.5 18.69484
1758 18.742348
1758.5 18.634771
1759 18.837187
1759.5 18.630986
1760 18.853682
1760.5 18.609487
1761 18.767032
1761.5 18.663386
1762 18.828298
1762.5 18.780728
1763 18.66845
1763.5 18.936755
1764 18.838418
1764.5 18.839301
1765 18.607205
1765.5 19.039777
1766 18.754491
1766.5 18.94563
1767 18.831083
1767.5 18.982263
1768 18.995976
1768.5 18.944117
1769 19.022948
1769.5 18.864718
1770 18.996802
1770.5 18.816449
1771 19.093159
1771.5 18.880916
1772 19.053744
1772.5 18.966727
1773 19.107212
1773.5 19.038244
1774 18.810755
1774.5 19.084361
1775 18.854074
1775.5 19.023155
1776 18.703592
1776.5 18.952189
1777 18.784766
1777.5 19.031312
1778 18.991013
1778.5 19.006774
1779 19.138391
1779.5 18.924932
1780 19.210245
1780.5 19.035991
1781 19.278912
1781.5 19.046651
1782 19.225986
1782.5 19.190425
1783 19.203438
1783.5 19.252403
1784 19.171906
1784.5 19.391853
1785 19.172722
1785.5 19.360745
1786 19.107355
1786.5 19.391856
1787 19.232617
1787.5 19.324285
1788 19.268128
1788.5 19.182098
1789 19.361642
1789.5 19.263515
1790 19.41002
1790.5 19.114774
1791 19.461045
1791.5 19.389002
1792 19.544384
1792.5 19.319701
1793 19.436663
1793.5 19.430809
1794 19.486274
1794.5 19.66003
1795 19.469632
1795.5 19.721375
1796 19.559158
1796.5 19.687067
1797 19.430789
1797.5 19.591308
1798 19.426033
1798.5 19.501387
1799 19.423193
1799.5 19.191694
1800 19.547828
1800.5 19.438039
1801 19.693111
1801.5 19.478653
1802 19.838321
1802.5 19.651835
1803 19.718994
1803.5 19.604488
1804 19.563368
1804.5 19.634183
1805 19.511895
1805.5 19.632447
1806 19.806583
1806.5 20.112188
1807 19.682698
1807.5 19.751576
1808 19.539955
1808.5 19.596088
1809 19.682336
1809.5 19.521791
1810 19.70797
1810.5 19.640675
1811 19.958611
1811.5 19.552311
1812 19.95313
1812.5 19.740243
1813 20.045801
1813.5 19.741474
1814 19.801502
1814.5 19.654952
1815 19.705933
1815.5 20.085132
1816 19.763485
1816.5 20.053039
1817 19.737723
1817.5 20.055644
1818 19.845389
1818.5 19.897789
1819 19.625074
1819.5 19.512966
1820 19.855823
1820.5 19.854003
1821 20.164998
1821.5 19.9744
1822 20.31526
1822.5 20.014587
1823 20.148595
1823.5 19.90947
1824 19.950536
1824.5 19.83792
1825 19.565351
1825.5 19.897601
1826 20.051351
1826.5 20.336528
1827 19.849823
1827.5 20.085447
1828 19.837524
1828.5 20.226462
1829 20.015807
1829.5 19.931698
1830 19.988127
1830.5 19.931312
1831 20.374209
1831.5 20.267527
1832 20.499659
1832.5 20.276284
1833 20.294383
1833.5 19.937071
1834 20.022467
1834.5 19.829684
1835 19.974047
1835.5 20.058662
1836 19.996852
1836.5 20.372759
1837 20.181264
1837.5 20.56513
1838 20.11189
1838.5 20.336623
1839 19.959371
1839.5 20.178586
1840 20.021264
1840.5 20.098604
1841 20.294526
1841.5 20.300347
1842 20.671304
1842.5 20.538497
1843 20.893529
1843.5 20.373604
1844 20.549171
1844.5 20.43923
1845 20.247991
1845.5 20.22028
1846 19.919693
1846.5 20.213982
1847 19.981229
1847.5 20.520587
1848 20.32391
1848.5 21.013775
1849 20.506647
1849.5 20.705785
1850 20.591873
1850.5 20.528243
1851 20.486523
1851.5 20.243151
1852 20.270087
1852.5 20.041718
1853 20.666595
1853.5 20.717648
1854 21.101283
1854.5 20.44691
1855 20.423228
1855.5 20.258676
1856 20.470399
1856.5 20.883566
1857 20.685533
1857.5 20.945124
1858 20.399094
1858.5 20.361172
1859 20.26253
1859.5 20.779893
1860 20.862995
1860.5 20.935428
1861 20.933084
1861.5 20.565459
1862 20.713294
1862.5 20.49417
1863 20.649998
1863.5 20.386779
1864 20.933732
1864.5 20.838672
1865 21.023537
1865.5 20.72431
1866 20.606302
1866.5 20.524801
1867 20.446923
1867.5 20.941947
1868 20.933773
1868.5 20.892794
1869 20.529072
1869.5 20.654817
1870 20.471783
1870.5 20.796776
1871 20.866463
1871.5 20.753101
1872 20.820226
1872.5 20.585467
1873 21.02973
1873.5 20.709953
1874 21.344343
1874.5 20.681684
1875 20.746744
1875.5 20.64262
1876 20.760584
1876.5 20.96401
1877 21.08743
1877.5 21.249789
1878 21.027321
1878.5 21.026492
1879 20.847714
1879.5 21.040237
1880 20.86004
1880.5 21.222727
1881 21.184437
1881.5 20.870616
1882 20.948146
1882.5 20.746887
1883 20.874649
1883.5 20.768291
1884 21.17441
1884.5 20.946963
1885 21.299115
1885.5 21.024533
1886 21.156979
1886.5 21.15629
1887 21.067421
1887.5 21.225685
1888 20.935345
1888.5 20.946908
1889 20.724727
1889.5 21.217577
1890 21.125323
1890.5 21.240221
1891 21.201718
1891.5 21.156776
1892 21.327385
1892.5 21.206473
1893 21.451519
1893.5 21.32342
1894 21.48995
1894.5 21.354507
1895 21.418615
1895.5 21.073519
1896 21.192192
1896.5 21.192116
1897 21.175532
1897.5 21.13307
1898 20.897394
1898.5 21.211252
1899 21.156533
1899.5 21.546094
1900 21.394365
1900.5 21.604718
1901 21.21271
1901.5 21.447884
1902 21.395753
1902.5 21.407324
1903 21.303371
1903.5 21.176055
1904 21.327747
1904.5 20.9876
1905 21.257587
1905.5 21.371382
1906 21.510789
1906.5 21.606776
1907 21.644083
1907.5 21.871595
1908 21.5231
1908.5 21.499123
1909 21.208791
1909.5 21.428382
1910 21.099752
1910.5 21.427155
1911 21.180449
1911.5 21.4376
1912 21.255863
1912.5 21.35783
1913 21.601093
1913.5 21.490753
1914 21.69667
1914.5 21.440111
1915 21.87281
1915.5 21.637747
1916 21.869445
1916.5 21.802692
1917 21.87141
1917.5 21.657175
1918 21.392272
1918.5 21.489859
1919 21.043158
1919.5 21.530648
1920 21.444906
1920.5 21.900715
1921 21.696165
1921.5 21.89956
1922 21.799698
1922.5 21.630453
1923 21.571311
1923.5 21.380949
1924 21.795744
1924.5 21.50436
1925 21.694267
1925.5 21.405715
1926 21.561503
1926.5 21.555071
1927 21.658452
1927.5 21.687464
1928 21.610603
1928.5 21.890624
1929 21.687633
1929.5 21.945003
1930 21.629022
1930.5 21.884961
1931 21.67208
1931.5 21.852237
1932 21.723975
1932.5 21.767797
1933 22.007573
1933.5 21.787943
1934 21.870287
1934.5 21.706387
1935 21.966092
1935.5 21.786445
1936 21.987602
1936.5 21.866763
1937 22.036265
1937.5 21.836282
1938 21.998309
1938.5 21.981879
1939 21.960086
1939.5 22.032586
1940 21.888207
1940.5 22.106905
1941 22.00384
1941.5 22.132601
1942 22.102846
1942.5 22.128677
1943 22.057189
1943.5 22.026524
1944 22.257987
1944.5 21.979462
1945 22.21317
1945.5 21.815917
1946 22.220591
1946.5 21.847714
1947 22.2415
1947.5 22.062376
1948 22.219495
1948.5 22.238214
1949 22.234255
1949.5 22.366562
1950 22.174989
1950.5 22.372061
1951 22.084501
1951.5 22.369194
1952 22.195649
1952.5 22.297148
1953 22.334602
1953.5 22.285715
1954 22.446102
1954.5 22.220457
1955 22.53233
1955.5 22.094806
1956 22.458008
1956.5 22.16543
1957 22.416019
1957.5 22.200724
1958 22.392486
1958.5 22.423348
1959 22.358526
1959.5 22.519261
1960 22.164774
1960.5 22.535089
1961 22.422142
1961.5 22.58108
1962 22.382423
1962.5 22.567625
1963 22.581714
1963.5 22.602634
1964 22.462696
1964.5 22.481382
1965 22.679465
1965.5 22.456571
1966 22.622873
1966.5 22.508594
1967 22.685219
1967.5 22.55107
1968 22.806416
1968.5 22.532138
1969 22.525033
1969.5 22.729254
1970 22.67829
1970.5 22.72356
1971 22.362825
1971.5 22.830305
1972 22.58869
1972.5 22.825716
1973 22.554384
1973.5 22.788681
1974 22.732089
1974.5 22.787055
1975 22.740074
1975.5 22.760898
1976 22.997779
1976.5 22.646478
1977 23.001669
1977.5 22.746225
1978 22.846898
1978.5 22.922543
1979 22.896194
1979.5 22.927631
1980 22.795564
1980.5 22.969466
1981 22.8644
1981.5 22.974426
1982 22.598055
1982.5 23.023924
1983 22.807468
1983.5 23.05987
1984 22.9092
1984.5 22.986738
1985 22.940339
1985.5 22.771403
1986 23.092525
1986.5 22.8807
1987 23.243427
1987.5 22.908847
1988 23.193918
1988.5 22.947632
1989 23.035045
1989.5 23.104329
1990 23.062749
1990.5 23.279233
1991 22.93081
1991.5 23.198481
1992 22.919199
1992.5 23.18766
1993 22.924066
1993.5 23.12932
1994 23.050715
1994.5 23.209834
1995 23.172453
1995.5 23.117162
1996 23.207621
1996.5 22.900818
1997 23.391624
1997.5 23.200969
1998 23.365609
1998.5 23.147509
1999 23.358807
1999.5 23.192088
2000 23.296766
2000.5 23.310344
2001 23.138706
2001.5 23.509759
2002 23.307289
2002.5 23.440492
2003 23.18321
2003.5 23.322609
2004 23.280096
2004.5 23.418763
2005 23.249854
2005.5 23.197918
2006 23.409496
2006.5 23.414536
2007 23.603722
2007.5 23.176996
2008 23.599651
2008.5 23.366599
2009 23.640984
2009.5 23.473486
2010 23.379688
2010.5 23.344751
2011 23.4768
2011.5 23.463665
2012 23.353478
2012.5 23.580867
2013 23.403655
2013.5 23.67551
2014 23.4328
2014.5 23.513696
2015 23.505798
2015.5 23.548202
2016 23.591334
2016.5 23.468259
2017 23.803
2017.5 23.488201
2018 23.685178
2018.5 23.265933
2019 23.597577
2019.5 23.464283
2020 23.676725
2020.5 23.630437
2021 23.603174
2021.5 23.533562
2022 23.463251
2022.5 23.751648
2023 23.573765
2023.5 23.824225
2024 23.604682
2024.5 23.909725
2025 23.823349
2025.5 23.80601
2026 23.839869
2026.5 23.744765
2027 23.886029
2027.5 23.600928
2028 23.902552
2028.5 23.496725
2029 23.912612
2029.5 23.584102
2030 23.896536
2030.5 23.785402
2031 23.85589
2031.5 23.828018
2032 23.814893
2032.5 23.983862
2033 23.546223
2033.5 24.007937
2034 23.883064
2034.5 24.030133
2035 23.864055
2035.5 24.121654
2036 23.789842
2036.5 23.914555
2037 23.935042
2037.5 23.837106
2038 24.119179
2038.5 23.889741
2039 24.088915
2039.5 23.921333
2040 24.132305
2040.5 24.034624
2041 24.212259
2041.5 24.140666
2042 23.889121
2042.5 24.027911
2043 23.944168
2043.5 24.03582
2044 23.702908
2044.5 24.166237
2045 23.869967
2045.5 24.196218
2046 24.103196
2046.5 24.225658
2047 24.229938
2047.5 24.113554
2048 24.174184
2048.5 24.000473
2049 24.343483
2049.5 24.038555
2050 24.328381
2050.5 24.169475
2051 24.325967
2051.5 24.188963
2052 24.187535
2052.5 24.231651
2053 24.040958
2053.5 24.416475
2054 24.032941
2054.5 24.546686
2055 24.077463
2055.5 24.464849
2056 24.110244
2056.5 24.309544
2057 24.20951
2057.5 24.338768
2058 24.328415
2058.5 24.174839
2059 24.401775
2059.5 24.294931
2060 24.631332
2060.5 24.398796
2061 24.516404
2061.5 24.251856
2062 24.357669
2062.5 24.424447
2063 24.370462
2063.5 24.536672
2064 24.410036
2064.5 24.610354
2065 24.407285
2065.5 24.613523
2066 24.330509
2066.5 24.500039
2067 24.369022
2067.5 24.422857
2068 24.657911
2068.5 24.497524
2069 24.639143
2069.5 24.184947
2070 24.603471
2070.5 24.456391
2071 24.641135
2071.5 24.435239
2072 24.755572
2072.5 24.632291
2073 24.625893
2073.5 24.827042
2074 24.563599
2074.5 24.790645
2075 24.602126
2075.5 24.662319
2076 24.623252
2076.5 24.730274
2077 24.777468
2077.5 24.659391
2078 24.645917
2078.5 24.572496
2079 24.785605
2079.5 24.602488
2080 24.694864
2080.5 24.498715
2081 24.891399
2081.5 24.632081
2082 24.836358
2082.5 24.713753
2083 24.925312
2083.5 24.849294
2084 24.776894
2084.5 24.948488
2085 24.744806
2085.5 25.038046
2086 24.80184
2086.5 25.001547
2087 24.813035
2087.5 24.795049
2088 24.770886
2088.5 24.891372
2089 24.94356
2089.5 24.655549
2090 25.05233
2090.5 24.796985
2091 24.998492
2091.5 24.885912
2092 25.056311
2092.5 24.932206
2093 24.938881
2093.5 24.967946
2094 24.956581
2094.5 25.035277
2095 24.869707
2095.5 25.185353
2096 24.98854
2096.5 25.105834
2097 24.907213
2097.5 25.115776
2098 25.043806
2098.5 24.968886
2099 25.162283
2099.5 25.133488
2100 25.403467
2100.5 24.946427
2101 25.18023
2101.5 24.941646
2102 25.170714
2102.5 25.063413
2103 25.184032
2103.5 25.200388
2104 25.163773
2104.5 25.443944
2105 25.179312
2105.5 25.211248
2106 24.888381
2106.5 25.326532
2107 25.096914
2107.5 25.396004
2108 25.222325
2108.5 25.443101
2109 25.279519
2109.5 25.288367
2110 25.330684
2110.5 25.198156
2111 25.409979
2111.5 25.197136
2112 25.434506
2112.5 25.296095
2113 25.37609
2113.5 25.477779
2114 25.362813
2114.5 25.361371
2115 25.19463
2115.5 25.41658
2116 25.251871
2116.5 25.544798
2117 25.115564
2117.5 25.65884
2118 25.357741
2118.5 25.646129
2119 25.445488
2119.5 25.44446
2120 25.458774
2120.5 25.452513
2121 25.446066
2121.5 25.397524
2122 25.597802
2122.5 25.511661
2123 25.760183
2123.5 25.664377
2124 25.645787
2124.5 25.731713
2125 25.523973
2125.5 25.601164
2126 25.347224
2126.5 25.645897
2127 25.269076
2127.5 25.770929
2128 25.46747
2128.5 25.73584
2129 25.708279
2129.5 25.718722
2130 25.584534
2130.5 25.444293
2131 25.661865
2131.5 25.498998
2132 25.962356
2132.5 25.627556
2133 25.980872
2133.5 25.715229
2134 25.790298
2134.5 25.655985
2135 25.681484
2135.5 25.731829
2136 25.594562
2136.5 25.96859
2137 25.647971
2137.5 25.992087
2138 25.771436
2138.5 26.017928
2139 25.869954
2139.5 25.951982
2140 25.882262
2140.5 25.657716
2141 25.850677
2141.5 25.76884
2142 25.905412
2142.5 25.610283
2143 26.023865
2143.5 25.803882
2144 26.053157
2144.5 26.017186
2145 26.121357
2145.5 25.909775
2146 25.918007
2146.5 26.058549
2147 25.896621
2147.5 26.197857
2148 25.843963
2148.5 26.110938
2149 25.946859
2149.5 25.980139
2150 26.05522
2150.5 26.098192
2151 26.119789
2151.5 26.053047
2152 26.22937
2152.5 25.906366
2153 26.127878
2153.5 25.843933
2154 26.126838
2154.5 25.917536
2155 26.174897
2155.5 26.206404
2156 26.202297
2156.5 26.267231
2157 26.212269
2157.5 26.213446
2158 26.012611
2158.5 26.38379
2159 25.993291
2159.5 26.306632
2160 26.192078
2160.5 26.226574
2161 26.292402
2161.5 26.301798
2162 26.443446
2162.5 26.204911
2163 26.358965
2163.5 25.987375
2164 26.409861
2164.5 26.153716
2165 26.340166
2165.5 26.206428
2166 26.278618
2166.5 26.252407
2167 26.242223
2167.5 26.413777
2168 26.138067
2168.5 26.682177
2169 26.42335
2169.5 26.641059
2170 26.530892
2170.5 26.605242
2171 26.409534
2171.5 26.427183
2172 26.546222
2172.5 26.303583
2173 26.708749
2173.5 26.301119
2174 26.561087
2174.5 26.353902
2175 26.6426
2175.5 26.453218
2176 26.632604
2176.5 26.604497
2177 26.510099
2177.5 26.794493
2178 26.520169
2178.5 26.703918
2179 26.314911
2179.5 26.759675
2180 26.615423
2180.5 26.647159
2181 26.61345
2181.5 26.753086
2182 26.821479
2182.5 26.683262
2183 26.768661
2183.5 26.670176
2184 26.870102
2184.5 26.682734
2185 26.872262
2185.5 26.799509
2186 26.769194
2186.5 26.661924
2187 26.729369
2187.5 26.723501
2188 26.650718
2188.5 26.944783
2189 26.648542
2189.5 26.941961
2190 26.760864
2190.5 27.021646
2191 26.827544
2191.5 26.872125
2192 26.842192
2192.5 26.890674
2193 26.909044
2193.5 26.876089
2194 27.038926
2194.5 26.861832
2195 27.167073
2195.5 26.917359
2196 27.114111
2196.5 26.959804
2197 26.958358
2197.5 27.085418
2198 27.070642
2198.5 27.071974
2199 26.750103
2199.5 27.186161
2200 26.68004
2200.5 27.155867
2201 26.898727
2201.5 27.118129
2202 27.083355
2202.5 27.265492
2203 27.209139
2203.5 27.210632
2204 27.347967
2204.5 26.981202
2205 27.317074
2205.5 27.091011
2206 27.224267
2206.5 27.05701
2207 27.17261
2207.5 27.359399
2208 27.165228
2208.5 27.285641
2209 27.021027
2209.5 27.393118
2210 27.093866
2210.5 27.398431
2211 27.192366
2211.5 27.430794
2212 27.278107
2212.5 27.3283
2213 27.388543
2213.5 27.176657
2214 27.38094
2214.5 27.23318
2215 27.362305
2215.5 27.15492
2216 27.502856
2216.5 27.342293
2217 27.542061
2217.5 27.293259
2218 27.439025
2218.5 27.542824
2219 27.479818
2219.5 27.617732
2220 27.463359
2220.5 27.688363
2221 27.314952
2221.5 27.570936
2222 27.317676
2222.5 27.449223
2223 27.543038
2223.5 27.486533
2224 27.523929
2224.5 27.371922
2225 27.715433
2225.5 27.511021
2226 27.828208
2226.5 27.4257
2227 27.778462
2227.5 27.35433
2228 27.582195
2228.5 27.557874
2229 27.612302
2229.5 27.616253
2230 27.541283
2230.5 27.770311
2231 27.605778
2231.5 27.891746
2232 27.674106
2232.5 27.832308
2233 27.833951
2233.5 27.699289
2234 27.791122
2234.5 27.683789
2235 27.81181
2235.5 27.514687
2236 27.797884
2236.5 27.458438
2237 27.889702
2237.5 27.672493
2238 27.862114
2238.5 27.709448
2239 27.691901
2239.5 27.931204
2240 27.945554
2240.5 27.99398
2241 27.610561
2241.5 27.992105
2242 27.844602
2242.5 28.000766
2243 27.816767
2243.5 27.925181
2244 27.855167
2244.5 27.814859
2245 28.056255
2245.5 27.838826
2246 28.122458
2246.5 27.87869
2247 28.137285
2247.5 27.987766
2248 28.089696
2248.5 27.922657
2249 27.976099
2249.5 27.930793
2250 27.768385
2250.5 28.160974
2251 28.02735
2251.5 28.145513
2252 27.879757
2252.5 28.169701
2253 28.088203
2253.5 28.230304
2254 27.977753
2254.5 27.988753
2255 28.096405
2255.5 28.012577
2256 28.184298
2256.5 27.966976
2257 28.18509
2257.5 28.135023
2258 28.243184
2258.5 28.034684
2259 28.150365
2259.5 28.256944
2260 28.171596
2260.5 28.133696
2261 27.859503
2261.5 28.262079
2262 27.982172
2262.5 28.211492
2263 28.011858
2263.5 28.302625
2264 28.123665
2264.5 28.399777
2265 28.255683
2265.5 28.30469
2266 28.471014
2266.5 28.137749
2267 28.367683
2267.5 28.19488
2268 28.338861
2268.5 28.230345
2269 28.340045
2269.5 28.27327
2270 28.214204
2270.5 28.411472
2271 28.283897
2271.5 28.513071
2272 28.13209
2272.5 28.560171
2273 28.225365
2273.5 28.427979
2274 28.185564
2274.5 28.388971
2275 28.252423
2275.5 28.360996
2276 28.559408
2276.5 28.363147
2277 28.514612
2277.5 28.229663
2278 28.71035
2278.5 28.549314
2279 28.630769
2279.5 28.429124
2280 28.500524
2280.5 28.488782
2281 28.346542
2281.5 28.608355
2282 28.32154
2282.5 28.581518
2283 28.34737
2283.5 28.612486
2284 28.350747
2284.5 28.661132
2285 28.595567
2285.5 28.469855
2286 28.593811
2286.5 28.380716
2287 28.773561
2287.5 28.646132
2288 28.815433
2288.5 28.445375
2289 28.685519
2289.5 28.522936
2290 28.708768
2290.5 28.594524
2291 28.672972
2291.5 28.73899
2292 28.632221
2292.5 28.848201
2293 28.623489
2293.5 28.931069
2294 28.700528
2294.5 28.909525
2295 28.717968
2295.5 28.808296
2296 28.734624
2296.5 28.703654
2297 28.786471
2297.5 28.541574
2298 28.944945
2298.5 28.562677
2299 28.909555
2299.5 28.654394
2300 28.866649
2300.5 28.76907
2301 28.871241
2301.5 28.848365
2302 28.849649
2302.5 29.028815
2303 28.865421
2303.5 29.196665
2304 28.875878
2304.5 29.157543
2305 28.87336
2305.5 28.938389
2306 28.928646
2306.5 28.921852
2307 29.095316
2307.5 28.930646
2308 29.032689
2308.5 28.670278
2309 29.124162
2309.5 28.763938
2310 29.167262
2310.5 29.055944
2311 29.141217
2311.5 29.125023
2312 29.107884
2312.5 29.120347
2313 28.943345
2313.5 29.136312
2314 28.946552
2314.5 29.419887
2315 29.116124
2315.5 29.280326
2316 29.141849
2316.5 29.248565
2317 29.282767
2317.5 29.150325
2318 29.298961
2318.5 29.019642
2319 29.463097
2319.5 29.166883
2320 29.605031
2320.5 29.296279
2321 29.423749
2321.5 29.280666
2322 29.328099
2322.5 29.343322
2323 29.074192
2323.5 29.376537
2324 29.277626
2324.5 29.476529
2325 29.18357
2325.5 29.382771
2326 29.278511
2326.5 29.433918
2327 29.335618
2327.5 29.468468
2328 29.536682
2328.5 29.459435
2329 29.634899
2329.5 29.405427
2330 29.661849
2330.5 29.446569
2331 29.657176
2331.5 29.576012
2332 29.61694
2332.5 29.76163
2333 29.723319
2333.5 29.842168
2334 29.288548
2334.5 29.682896
2335 29.360491
2335.5 29.69068
2336 29.36064
2336.5 29.719502
2337 29.537907
2337.5 29.727289
2338 29.72275
2338.5 29.673612
2339 29.789463
2339.5 29.684564
2340 29.91226
2340.5 29.681709
2341 30.005461
2341.5 29.73246
2342 29.835382
2342.5 29.746285
2343 29.72025
2343.5 29.877764
2344 29.646131
2344.5 29.79598
2345 29.596373
2345.5 29.950523
2346 29.564247
2346.5 30.003166
2347 29.81348
2347.5 29.964396
2348 29.852
2348.5 29.864088
2349 30.043107
2349.5 29.906502
2350 30.229789
2350.5 29.812416
2351 30.140588
2351.5 29.869172
2352 30.080459
2352.5 29.91266
2353 30.016398
2353.5 30.086765
2354 29.902154
2354.5 30.11277
2355 29.841802
2355.5 30.20837
2356 29.880086
2356.5 30.206001
2357 29.947752
2357.5 30.167994
2358 30.064932
2358.5 30.028006
2359 30.235013
2359.5 29.910108
2360 30.385739
2360.5 30.201614
2361 30.268231
2361.5 29.887471
2362 30.29623
2362.5 30.095366
2363 30.313995
2363.5 30.18041
2364 30.298048
2364.5 30.330479
2365 30.226168
2365.5 30.390447
2366 30.314252
2366.5 30.437541
2367 30.254826
2367.5 30.415729
2368 30.122608
2368.5 30.214697
2369 30.326298
2369.5 30.362141
2370 30.446687
2370.5 30.197608
2371 30.441108
2371.5 30.290315
2372 30.492193
2372.5 30.182117
2373 30.472434
2373.5 30.449006
2374 30.501536
2374.5 30.518824
2375 30.49823
2375.5 30.793312
2376 30.438966
2376.5 30.700558
2377 30.447572
2377.5 30.562639
2378 30.44441
2378.5 30.58584
2379 30.403423
2379.5 30.483618
2380 30.580032
2380.5 30.52429
2381 30.737293
2381.5 30.439323
2382 30.739173
2382.5 30.374303
2383 30.789673
2383.5 30.533868
2384 30.682814
2384.5 30.676889
2385 30.54435
2385.5 30.832827
2386 30.576962
2386.5 30.825713
2387 30.554229
2387.5 30.857867
2388 30.712229
2388.5 30.770126
2389 30.796707
2389.5 30.851579
2390 30.930039
2390.5 30.735758
2391 30.946559
2391.5 30.49103
2392 30.925772
2392.5 30.621648
2393 30.922517
2393.5 30.667531
2394 30.874896
2394.5 30.857989
2395 30.896533
2395.5 30.91327
2396 30.688772
2396.5 31.023902
2397 30.928877
2397.5 31.137443
2398 30.904555
2398.5 31.147882
2399 30.964902
2399.5 30.92927
2400 30.960926
2400.5 30.979285
2401 31.158483
2401.5 30.983919
2402 31.205851
2402.5 30.892178
2403 31.120005
2403.5 31.033468
2404 31.189528
2404.5 31.066597
2405 31.200671
2405.5 31.173971
2406 31.071559
2406.5 31.18771
2407 30.855832
2407.5 31.273443
2408 31.086108
2408.5 31.311804
2409 31.004059
2409.5 31.221452
2410 31.164563
2410.5 31.211841
2411 31.324688
2411.5 31.218657
2412 31.425896
2412.5 31.269804
2413 31.520113
2413.5 31.140789
2414 31.344059
2414.5 31.239694
2415 31.324252
2415.5 31.2711
2416 31.210178
2416.5 31.414989
2417 31.256336
2417.5 31.508821
2418 31.192932
2418.5 31.563914
2419 31.287971
2419.5 31.657833
2420 31.476638
2420.5 31.649953
2421 31.596693
2421.5 31.42288
2422 31.471762
2422.5 31.344846
2423 31.601194
2423.5 31.334198
2424 31.646118
2424.5 31.39849
2425 31.636319
2425.5 31.524065
2426 31.67091
2426.5 31.729695
2427 31.477141
2427.5 31.816179
2428 31.493261
2428.5 31.626076
2429 31.47184
2429.5 31.63982
2430 31.436461
2430.5 31.657672
2431 31.643134
2431.5 31.614262
2432 31.748223
2432.5 31.346789
2433 31.682551
2433.5 31.58941
2434 31.797495
2434.5 31.577805
2435 32.023284
2435.5 31.798807
2436 31.766754
2436.5 31.887752
2437 31.732008
2437.5 31.976584
2438 31.726024
2438.5 31.989753
2439 31.745994
2439.5 32.007715
2440 31.692523
2440.5 31.81417
2441 31.786913
2441.5 31.713241
2442 31.9426
2442.5 31.937739
2443 31.975746
2443.5 31.600904
2444 32.039234
2444.5 31.790921
2445 32.080045
2445.5 31.730488
2446 31.993744
2446.5 31.956032
2447 31.898931
2447.5 32.043809
2448 31.849787
2448.5 32.19004
2449 32.052213
2449.5 32.280079
2450 31.901556
2450.5 32.063499
2451 32.056117
2451.5 32.105029
2452 32.0306
2452.5 31.90763
2453 32.175186
2453.5 31.86101
2454 32.1219
2454.5 31.870067
2455 32.146683
2455.5 31.925777
2456 32.145125
2456.5 32.030961
2457 32.088274
2457.5 32.199866
2458 32.031775
2458.5 32.24932
2459 32.086447
2459.5 32.273272
2460 32.010788
2460.5 32.323116
2461 32.128179
2461.5 32.165706
2462 32.320625
2462.5 32.310998
2463 32.430229
2463.5 32.080469
2464 32.46834
2464.5 32.012466
2465 32.494238
2465.5 32.222143
2466 32.49312
2466.5 32.334185
2467 32.24811
2467.5 32.347214
2468 32.204631
2468.5 32.418954
2469 32.100049
2469.5 32.537535
2470 32.240957
2470.5 32.412094
2471 32.422456
2471.5 32.513139
2472 32.595342
2472.5 32.513174
2473 32.814485
2473.5 32.460785
2474 32.831854
2474.5 32.405016
2475 32.668519
2475.5 32.398576
2476 32.591736
2476.5 32.613823
2477 32.666981
2477.5 32.709545
2478 32.340261
2478.5 32.702652
2479 32.531184
2479.5 32.692191
2480 32.459244
2480.5 32.866681
2481 32.635662
2481.5 32.647246
2482 32.675633
2482.5 32.668293
2483 32.760984
2483.5 32.611981
2484 32.928848
2484.5 32.614112
2485 32.878506
2485.5 32.690397
2486 32.83672
2486.5 32.681176
2487 32.737067
2487.5 32.828718
2488 32.81894
2488.5 32.864329
2489 32.64744
2489.5 33.052939
2490 32.754174
2490.5 32.869184
2491 32.691932
2491.5 32.866409
2492 32.694945
2492.5 32.899502
2493 32.856628
2493.5 32.831749
2494 33.103991
2494.5 32.990956
2495 33.252808
2495.5 32.970095
2496 33.143437
2496.5 33.056039
2497 33.14386
2497.5 33.029377
2498 33.042592
2498.5 33.208364
2499 33.019769
2499.5 33.122227
2500 32.788303
2500.5 33.170977
2501 32.843801
2501.5 33.181912
2502 33.018315
2502.5 33.224937
2503 33.157021
2503.5 33.086884
2504 33.293176
2504.5 33.206403
2505 33.406547
2505.5 33.2151
2506 33.405608
2506.5 33.232743
2507 33.322331
2507.5 33.266142
2508 33.302808
2508.5 33.400762
2509 33.078024
2509.5 33.361363
2510 33.061281
2510.5 33.339033
2511 32.943803
2511.5 33.392489
2512 33.216798
2512.5 33.485231
2513 33.314011
2513.5 33.243263
2514 33.172831
2514.5 33.115566
2515 33.44138
2515.5 33.380073
2516 33.591232
2516.5 33.385557
2517 33.680263
2517.5 33.512196
2518 33.592245
2518.5 33.710209
2519 33.664674
2519.5 33.841693
2520 33.527488
2520.5 33.814389
2521 33.339995
2521.5 33.710536
2522 33.416688
2522.5 33.598062
2523 33.527708
2523.5 33.489817
2524 33.591452
2524.5 33.532467
2525 33.666834
2525.5 33.40652
2526 33.879751
2526.5 33.563459
2527 33.698535
2527.5 33.621138
2528 33.633986
2528.5 33.620071
2529 33.687446
2529.5 33.772615
2530 33.645761
2530.5 33.839262
2531 33.532041
2531.5 33.759829
2532 33.62729
2532.5 33.858901
2533 33.863917
2533.5 33.881155
2534 33.890444
2534.5 33.765924
2535 33.976325
2535.5 33.811727
2536 34.104764
2536.5 33.8763
2537 34.238142
2537.5 33.929086
2538 34.212047
2538.5 33.972576
2539 33.972856
2539.5 33.989358
2540 33.850768
2540.5 33.962989
2541 33.831728
2541.5 34.030968
2542 33.746597
2542.5 34.066558
2543 33.910364
2543.5 34.090167
2544 34.282726
2544.5 34.296411
2545 34.382799
2545.5 34.008995
2546 34.204894
2546.5 33.860084
2547 34.22125
2547.5 33.798981
2548 34.117645
2548.5 33.971524
2549 34.069267
2549.5 34.082195
2550 34.162283
2550.5 34.292105
2551 34.060144
2551.5 34.436235
2552 34.259948
2552.5 34.460074
2553 34.281445
2553.5 34.461319
2554 34.493345
2554.5 34.48061
2555 34.667417
2555.5 34.405881
2556 34.585136
2556.5 34.206471
2557 34.416714
2557.5 34.163928
2558 34.273353
2558.5 33.947721
2559 34.30787
2559.5 33.984581
2560 33.727536
2560.5 34.33902
2561 34.078467
2561.5 34.277123
2562 34.274668
2562.5 34.834674
2563 34.636441
2563.5 34.780645
2564 34.833387
2564.5 35.01204
2565 34.947565
2565.5 34.867218
2566 35.046354
2566.5 34.597188
2567 34.838849
2567.5 34.487659
2568 34.6766
2568.5 34.483138
2569 34.531024
2569.5 34.702069
2570 34.650034
2570.5 34.643298
2571 34.328777
2571.5 34.600174
2572 34.408203
2572.5 34.674555
2573 34.513485
2573.5 34.876737
2574 34.685421
2574.5 34.904796
2575 34.762934
2575.5 34.874681
2576 35.169551
2576.5 34.96936
2577 35.311869
2577.5 34.889731
2578 34.965831
2578.5 34.791368
2579 34.871939
2579.5 34.652358
2580 34.562021
2580.5 34.874082
2581 34.719029
2581.5 34.826466
2582 34.473428
2582.5 34.918213
2583 34.448296
2583.5 35.068998
2584 34.895211
2584.5 35.165197
2585 35.093147
2585.5 35.128319
2586 35.252979
2586.5 35.248166
2587 35.469452
2587.5 35.162857
2588 35.600439
2588.5 35.21333
2589 35.312641
2589.5 35.155094
2590 35.138443
2590.5 35.026008
2591 34.849766
2591.5 35.024893
2592 34.591585
2592.5 34.945577
2593 34.746113
2593.5 35.197097
2594 35.11335
2594.5 35.439616
2595 35.557148
2595.5 35.542974
2596 35.7683
2596.5 35.443059
2597 36.022222
2597.5 35.70925
2598 35.893241
2598.5 35.535392
2599 35.610619
2599.5 35.39218
2600 35.062331
2600.5 35.204321
2601 35.026523
2601.5 35.15304
2602 34.825879
2602.5 35.219699
2603 34.902143
2603.5 35.284072
2604 35.274285
2604.5 35.348415
2605 35.515279
2605.5 35.554481
2606 36.031088
2606.5 35.90374
2607 35.995999
2607.5 35.637668
2608 36.103353
2608.5 35.841584
2609 35.985598
2609.5 35.770184
2610 35.870734
2610.5 35.823849
2611 35.513267
2611.5 35.725331
2612 35.353896
2612.5 35.614863
2613 35.458243
2613.5 35.589573
2614 35.196039
2614.5 35.381541
2615 35.404512
2615.5 35.334906
2616 35.571793
2616.5 35.538578
2617 36.006087
2617.5 36.011413
2618 36.077008
2618.5 35.991812
2619 36.289832
2619.5 36.260366
2620 36.335394
2620.5 36.126354
2621 36.360222
2621.5 36.159977
2622 36.370572
2622.5 35.88638
2623 36.057016
2623.5 35.532773
2624 35.873547
2624.5 35.639119
2625 35.884708
2625.5 35.603604
2626 35.479221
2626.5 35.670796
2627 35.442024
2627.5 35.793692
2628 35.450083
2628.5 35.832962
2629 35.908332
2629.5 36.132777
2630 36.110243
2630.5 36.250618
2631 36.388317
2631.5 36.403325
2632 36.6193
2632.5 36.218309
2633 36.71712
2633.5 36.327624
2634 36.530039
2634.5 36.281586
2635 36.483526
2635.5 36.385018
2636 36.291498
2636.5 36.348477
2637 35.849845
2637.5 36.16083
2638 36.067152
2638.5 36.190939
2639 35.773978
2639.5 36.218211
2640 35.872942
2640.5 36.139369
2641 35.975951
2641.5 36.002308
2642 36.208108
2642.5 36.058193
2643 36.325034
2643.5 36.164162
2644 36.426809
2644.5 36.196595
2645 36.515465
2645.5 36.345708
2646 36.405638
2646.5 36.603889
2647 36.363256
2647.5 36.385638
2648 36.10149
2648.5 36.367646
2649 36.075044
2649.5 36.338887
2650 36.038697
2650.5 36.393058
2651 36.23198
2651.5 36.308005
2652 36.382622
2652.5 36.375606
2653 36.538666
2653.5 36.354816
2654 36.696339
2654.5 36.404538
2655 36.631584
2655.5 36.480188
2656 36.584297
2656.5 36.518207
2657 36.436886
2657.5 36.528206
2658 36.401233
2658.5 36.650917
2659 36.17022
2659.5 36.608338
2660 36.23389
2660.5 36.508134
2661 36.358505
2661.5 36.561126
2662 36.342594
2662.5 36.286885
2663 36.303329
2663.5 36.302972
2664 36.380938
2664.5 36.166731
2665 36.741823
2665.5 36.39313
2666 36.613759
2666.5 36.536831
2667 36.606583
2667.5 36.802277
2668 36.626968
2668.5 36.826199
2669 36.491802
2669.5 36.937264
2670 36.619753
2670.5 36.850709
2671 36.720964
2671.5 36.728239
2672 36.723322
2672.5 36.7607
2673 36.774284
2673.5 36.474687
2674 37.06747
2674.5 36.788675
2675 37.025619
2675.5 36.912608
2676 37.121326
2676.5 36.978459
2677 37.176526
2677.5 37.326479
2678 37.088448
2678.5 37.58274
2679 37.240285
2679.5 37.531486
2680 37.068015
2680.5 37.254769
2681 36.988729
2681.5 37.104213
2682 36.958739
2682.5 36.803541
2683 37.022474
2683.5 36.942497
2684 37.191153
2684.5 36.937261
2685 37.400573
2685.5 37.104025
2686 37.49958
2686.5 37.245739
2687 37.533975
2687.5 37.403676
2688 37.37061
2688.5 37.319425
2689 37.088749
2689.5 37.30247
2690 36.977223
2690.5 37.107342
2691 36.805722
2691.5 37.001878
2692 36.865464
2692.5 36.971483
2693 36.945477
2693.5 36.924624
2694 37.381247
2694.5 37.327954
2695 37.572896
2695.5 37.170371
2696 37.648499
2696.5 37.31921
2697 37.618127
2697.5 37.51283
2698 37.45541
2698.5 37.62548
2699 37.285954
2699.5 37.554294
2700 37.310064
2700.5 37.567487
2701 37.480536
2701.5 37.668389
2702 37.419257
2702.5 37.452945
2703 37.420031
2703.5 37.381831
2704 37.463292
2704.5 36.983374
2705 37.333471
2705.5 36.880979
2706 37.28646
2706.5 37.109372
2707 37.187889
2707.5 37.025443
2708 37.100056
2708.5 37.267843
2709 37.203667
2709.5 37.678319
2710 37.575033
2710.5 38.144949
2711 37.911969
2711.5 38.156936
2712 38.115674
2712.5 38.064209
2713 38.05888
2713.5 37.729746
2714 37.728223
2714.5 37.399271
2715 37.704381
2715.5 37.284517
2716 37.549388
2716.5 37.108651
2717 37.265936
2717.5 37.202781
2718 37.361115
2718.5 37.402093
2719 37.297502
2719.5 37.727207
2720 37.40713
2720.5 37.784272
2721 37.753609
2721.5 37.965456
2722 38.06943
2722.5 38.160816
2723 38.125429
2723.5 38.292459
2724 38.509485
2724.5 38.412854
2725 38.749129
2725.5 38.186738
2726 38.605168
2726.5 38.248432
2727 38.24493
2727.5 38.038421
2728 38.047189
2728.5 38.190746
2729 38.030681
2729.5 38.029
2730 37.57661
2730.5 37.893334
2731 37.680525
2731.5 37.94879
2732 37.633178
2732.5 37.794366
2733 37.671274
2733.5 37.531489
2734 37.738192
2734.5 37.526256
2735 37.69362
2735.5 37.62728
2736 37.784693
2736.5 37.428114
2737 37.576854
2737.5 37.545589
2738 37.753561
2738.5 37.711671
2739 37.652087
2739.5 38.134968
2740 38.27599
2740.5 38.506287
2741 38.059983
2741.5 38.811406
2742 38.58546
2742.5 38.833383
2743 38.402236
2743.5 38.517767
2744 38.506064
2744.5 38.466209
2745 38.631186
2745.5 38.304543
2746 38.599053
2746.5 38.099277
2747 38.290682
2747.5 37.995654
2748 38.11813
2748.5 38.106847
2749 38.042742
2749.5 38.027972
2750 37.831953
2750.5 38.115355
2751 37.746418
2751.5 38.024646
2752 37.712508
2752.5 37.89162
2753 37.790284
2753.5 38.061959
2754 38.088343
2754.5 38.129261
2755 38.159868
2755.5 37.978855
2756 38.306466
2756.5 38.104591
2757 38.341454
2757.5 37.991259
2758 38.321215
2758.5 38.183624
2759 38.015071
2759.5 38.061494
2760 37.835094
2760.5 38.05404
2761 37.591362
2761.5 37.927788
2762 37.487009
2762.5 38.171056
2763 38.127401
2763.5 38.240403
2764 38.073942
2764.5 38.063234
2765 38.250083
2765.5 38.129565
2766 38.43731
2766.5 38.163695
2767 38.591471
2767.5 38.47402
2768 38.795686
2768.5 38.54903
2769 38.65985
2769.5 38.869929
2770 38.639405
2770.5 38.912639
2771 38.604105
2771.5 38.911575
2772 38.649371
2772.5 38.972574
2773 38.502675
2773.5 38.62417
2774 38.569903
2774.5 38.45185
2775 38.515696
2775.5 38.027135
2776 38.523483
2776.5 38.300973
2777 38.588938
2777.5 38.209534
2778 38.613084
2778.5 38.46356
2779 38.496453
2779.5 38.514727
2780 38.328269
2780.5 38.418242
2781 38.224933
2781.5 38.640305
2782 38.327292
2782.5 38.695124
2783 38.539758
2783.5 38.763011
2784 38.486394
2784.5 38.639098
2785 38.775578
2785.5 38.723809
2786 38.866603
2786.5 38.353142
2787 39.024451
2787.5 38.717854
2788 39.12304
2788.5 38.824967
2789 39.107579
2789.5 39.111623
2790 39.070877
2790.5 39.181376
2791 39.018938
2791.5 39.212132
2792 39.083132
2792.5 39.369026
2793 39.127311
2793.5 39.151731
2794 39.035052
2794.5 39.164194
2795 39.057142
2795.5 38.760775
2796 38.977551
2796.5 38.634849
2797 38.82969
2797.5 38.342416
2798 38.854483
2798.5 38.267291
2799 38.699871
2799.5 38.654727
2800 38.997346
##END=
