##TITLE= W6524_5mm_240124
##JCAMP-DX= 4.24
##DATA TYPE= UV/VIS SPECTRUM
##ORIGIN=  Lambda-SPX/P Scan
##OWNER= Optiplex/OPTIPLEX-755
##DATE= 24.01.2024 17:08:46
##SPECTROMETER/DATA SYSTEM= Lambda 19 UV/Vis/NIR
##SAMPLE DESCRIPTION= 240124
##DELTAX= 0.5
##XUNITS= NANOMETERS
##YUNITS= TRANSMITTANCE
$$COMMENT= RTUNITS 0-1
##XFACTOR= 1.0
##YFACTOR= 0.01
##FIRSTX= 190
##LASTX= 2800
##NPOINTS= 5221
##FIRSTY= 0.002461
##MAXY= 0.377528
##MINY= -0.00002
##XYDATA= (XY..XY)
190 0.246094
190.5 0.196674
191 0.153226
191.5 0.152681
192 0.145382
192.5 0.116288
193 0.090924
193.5 0.061696
194 0.053483
194.5 0.037684
195 0.031965
195.5 0.018303
196 0.020421
196.5 0.012742
197 0.012165
197.5 -0.002033
198 0.008638
198.5 0.001678
199 0.010142
199.5 0.005751
200 0.00045
200.5 0.006236
201 0.003832
201.5 0.006151
202 -0.000885
202.5 0.007115
203 0.004209
203.5 0.005896
204 0.005822
204.5 -0.000081
205 0.007824
205.5 0.001806
206 0.011464
206.5 -0.000562
207 0.013295
207.5 -0.000723
208 0.008651
208.5 0.002154
209 0.003282
209.5 0.007307
210 0.007234
210.5 0.00963
211 -0.001418
211.5 0.006968
212 -0.000805
212.5 0.010019
213 0.006793
213.5 0.007056
214 0.009054
214.5 0.009062
215 0.01069
215.5 0.007474
216 0.014981
216.5 0.008224
217 0.016643
217.5 0.01394
218 0.016331
218.5 0.01413
219 0.019173
219.5 0.021232
220 0.018104
220.5 0.025034
221 0.021218
221.5 0.03518
222 0.03191
222.5 0.036497
223 0.032774
223.5 0.046139
224 0.045999
224.5 0.053675
225 0.056786
225.5 0.06708
226 0.074584
226.5 0.08174
227 0.088311
227.5 0.092033
228 0.110966
228.5 0.120397
229 0.133377
229.5 0.145362
230 0.156471
230.5 0.174488
231 0.185068
231.5 0.200693
232 0.206533
232.5 0.235462
233 0.235685
233.5 0.254889
234 0.257853
234.5 0.275735
235 0.283297
235.5 0.297896
236 0.299287
236.5 0.301738
237 0.311933
237.5 0.314937
238 0.317043
238.5 0.31361
239 0.3275
239.5 0.323513
240 0.323055
240.5 0.319992
241 0.320898
241.5 0.327059
242 0.317283
242.5 0.326136
243 0.307118
243.5 0.315973
244 0.302235
244.5 0.312625
245 0.301911
245.5 0.296635
246 0.297147
246.5 0.295093
247 0.292134
247.5 0.279725
248 0.279925
248.5 0.271504
249 0.278918
249.5 0.271158
250 0.26887
250.5 0.263873
251 0.256596
251.5 0.25852
252 0.250816
252.5 0.255925
253 0.246944
253.5 0.249228
254 0.241889
254.5 0.242496
255 0.233886
255.5 0.234512
256 0.232562
256.5 0.225934
257 0.223887
257.5 0.221512
258 0.223364
258.5 0.217913
259 0.217936
259.5 0.210037
260 0.214113
260.5 0.208597
261 0.210057
261.5 0.208427
262 0.205085
262.5 0.204702
263 0.206092
263.5 0.203556
264 0.196979
264.5 0.202916
265 0.196854
265.5 0.196437
266 0.19192
266.5 0.191681
267 0.193777
267.5 0.191499
268 0.190655
268.5 0.181476
269 0.195014
269.5 0.182212
270 0.188432
270.5 0.181404
271 0.184459
271.5 0.184996
272 0.190224
272.5 0.185675
273 0.17927
273.5 0.185302
274 0.182646
274.5 0.183894
275 0.179532
275.5 0.183774
276 0.185891
276.5 0.182762
277 0.181497
277.5 0.177445
278 0.185534
278.5 0.179886
279 0.185825
279.5 0.177006
280 0.187157
280.5 0.180687
281 0.189164
281.5 0.184382
282 0.184806
282.5 0.189493
283 0.18161
283.5 0.190127
284 0.18649
284.5 0.19296
285 0.192642
285.5 0.196643
286 0.19855
286.5 0.197293
287 0.202733
287.5 0.20158
288 0.207448
288.5 0.201049
289 0.210769
289.5 0.205275
290 0.216297
290.5 0.212359
291 0.216005
291.5 0.220022
292 0.221613
292.5 0.225945
293 0.226494
293.5 0.236069
294 0.237041
294.5 0.246266
295 0.250405
295.5 0.252126
296 0.252576
296.5 0.26094
297 0.264347
297.5 0.273689
298 0.28112
298.5 0.282299
299 0.290147
299.5 0.296562
300 0.307936
300.5 0.306644
301 0.31367
301.5 0.324758
302 0.333265
302.5 0.34108
303 0.345936
303.5 0.356536
304 0.362834
304.5 0.37271
305 0.367355
305.5 0.389723
306 0.391855
306.5 0.404256
307 0.411808
307.5 0.425469
308 0.431778
308.5 0.445559
309 0.45604
309.5 0.461343
310 0.480255
310.5 0.488927
311 0.516722
311.5 0.521667
312 0.536694
312.5 0.553543
313 0.563698
313.5 0.571436
314 0.594027
314.5 0.611278
315 0.621885
315.5 0.648134
316 0.65462
316.5 0.68683
317 0.690069
317.5 0.714689
318 0.728719
318.5 0.743483
319 0.764352
319.5 0.774157
320 0.798773
320.5 0.811978
321 0.848183
321.5 0.860422
322 0.877935
322.5 0.904201
323 0.926412
323.5 0.943675
324 0.96163
324.5 0.996188
325 1.003169
325.5 1.043849
326 1.039821
326.5 1.077042
327 1.093094
327.5 1.115612
328 1.140582
328.5 1.157128
329 1.190101
329.5 1.218814
330 1.234169
330.5 1.250151
331 1.285988
331.5 1.299004
332 1.338167
332.5 1.35308
333 1.379854
333.5 1.408167
334 1.423362
334.5 1.461395
335 1.473886
335.5 1.501326
336 1.527199
336.5 1.564682
337 1.583735
337.5 1.59655
338 1.630218
338.5 1.657629
339 1.686579
339.5 1.709261
340 1.741703
340.5 1.756288
341 1.80134
341.5 1.8058
342 1.843763
342.5 1.866808
343 1.899697
343.5 1.923546
344 1.958678
344.5 1.98531
345 2.011287
345.5 2.045695
346 2.074031
346.5 2.11406
347 2.114556
347.5 2.156903
348 2.185285
348.5 2.208241
349 2.246354
349.5 2.250615
350 2.291074
350.5 2.31768
351 2.354924
351.5 2.368803
352 2.399653
352.5 2.432303
353 2.459162
353.5 2.485443
354 2.495126
354.5 2.53824
355 2.576185
355.5 2.585384
356 2.610908
356.5 2.640108
357 2.659649
357.5 2.698653
358 2.729551
358.5 2.761617
359 2.781108
359.5 2.799206
360 2.834363
360.5 2.84879
361 2.890555
361.5 2.903849
362 2.950438
362.5 2.971312
363 2.986731
363.5 3.028705
364 3.061312
364.5 3.089471
365 3.098946
365.5 3.133086
366 3.16611
366.5 3.21147
367 3.237087
367.5 3.268719
368 3.294292
368.5 3.32174
369 3.379166
369.5 3.402855
370 3.47055
370.5 3.489543
371 3.560076
371.5 3.570229
372 3.603473
372.5 3.662134
373 3.697502
373.5 3.728221
374 3.791672
374.5 3.829558
375 3.897665
375.5 3.970724
376 3.9847
376.5 4.057517
377 4.099989
377.5 4.163713
378 4.216912
378.5 4.31082
379 4.32346
379.5 4.452392
380 4.522464
380.5 4.557294
381 4.650478
381.5 4.729524
382 4.783551
382.5 4.882152
383 4.943921
383.5 5.018
384 5.105105
384.5 5.163223
385 5.269194
385.5 5.338316
386 5.436077
386.5 5.488284
387 5.599582
387.5 5.670195
388 5.757536
388.5 5.828597
389 5.929978
389.5 5.965772
390 6.086284
390.5 6.16778
391 6.259787
391.5 6.325496
392 6.41038
392.5 6.510852
393 6.543902
393.5 6.648292
394 6.730853
394.5 6.795441
395 6.870042
395.5 6.941577
396 7.034761
396.5 7.098489
397 7.161961
397.5 7.244464
398 7.293978
398.5 7.370698
399 7.422753
399.5 7.480004
400 7.547564
400.5 7.63659
401 7.658362
401.5 7.738718
402 7.802227
402.5 7.867065
403 7.886392
403.5 7.955149
404 7.985834
404.5 8.048459
405 8.090948
405.5 8.150116
406 8.177032
406.5 8.227623
407 8.252492
407.5 8.316151
408 8.34953
408.5 8.399907
409 8.394366
409.5 8.473143
410 8.506688
410.5 8.523846
411 8.576563
411.5 8.620629
412 8.664652
412.5 8.696775
413 8.703149
413.5 8.736431
414 8.733142
414.5 8.791126
415 8.799738
415.5 8.875099
416 8.864648
416.5 8.864328
417 8.931992
417.5 8.927044
418 8.972043
418.5 8.969327
419 9.005633
419.5 9.020446
420 9.005401
420.5 9.033503
421 9.067946
421.5 9.050674
422 9.085364
422.5 9.113044
423 9.100337
423.5 9.138976
424 9.129255
424.5 9.137379
425 9.143247
425.5 9.165895
426 9.139911
426.5 9.196109
427 9.161019
427.5 9.180608
428 9.190568
428.5 9.183814
429 9.196495
429.5 9.231752
430 9.199452
430.5 9.209882
431 9.233976
431.5 9.217072
432 9.251931
432.5 9.26389
433 9.233984
433.5 9.259702
434 9.237461
434.5 9.268965
435 9.21153
435.5 9.251922
436 9.209836
436.5 9.247404
437 9.239469
437.5 9.232559
438 9.238795
438.5 9.242403
439 9.221675
439.5 9.212095
440 9.204157
440.5 9.251855
441 9.239712
441.5 9.242591
442 9.259028
442.5 9.242374
443 9.20821
443.5 9.225395
444 9.221523
444.5 9.22749
445 9.192703
445.5 9.212071
446 9.182253
446.5 9.219926
447 9.21926
447.5 9.21714
448 9.221715
448.5 9.21857
449 9.232733
449.5 9.246753
450 9.271163
450.5 9.269665
451 9.280079
451.5 9.284886
452 9.288149
452.5 9.289549
453 9.289187
453.5 9.332997
454 9.297622
454.5 9.348472
455 9.355401
455.5 9.336997
456 9.366123
456.5 9.359826
457 9.386472
457.5 9.360189
458 9.382135
458.5 9.438563
459 9.46145
459.5 9.452756
460 9.472865
460.5 9.500563
461 9.507907
461.5 9.505472
462 9.532461
462.5 9.560691
463 9.596593
463.5 9.583252
464 9.60968
464.5 9.620093
465 9.637173
465.5 9.657077
466 9.680901
466.5 9.683017
467 9.693732
467.5 9.720382
468 9.736017
468.5 9.775957
469 9.775884
469.5 9.794179
470 9.832593
470.5 9.830762
471 9.848145
471.5 9.901247
472 9.890544
472.5 9.913253
473 9.942542
473.5 9.974391
474 9.997011
474.5 10.005429
475 10.023668
475.5 10.066295
476 10.087927
476.5 10.110109
477 10.150184
477.5 10.164
478 10.170658
478.5 10.202766
479 10.244432
479.5 10.250167
480 10.269598
480.5 10.321669
481 10.359511
481.5 10.356431
482 10.37944
482.5 10.41017
483 10.414059
483.5 10.468898
484 10.497271
484.5 10.512751
485 10.545419
485.5 10.561992
486 10.554685
486.5 10.634122
487 10.615157
487.5 10.683698
488 10.669997
488.5 10.697677
489 10.735174
489.5 10.735413
490 10.787242
490.5 10.785139
491 10.811636
491.5 10.84012
492 10.872514
492.5 10.845351
493 10.889251
493.5 10.90138
494 10.893057
494.5 10.924075
495 10.948308
495.5 10.962767
496 10.976326
496.5 11.024615
497 11.010476
497.5 11.035116
498 11.026169
498.5 11.049733
499 11.084541
499.5 11.080373
500 11.099533
500.5 11.098233
501 11.10833
501.5 11.132453
502 11.173081
502.5 11.13249
503 11.17431
503.5 11.158401
504 11.196286
504.5 11.216785
505 11.206537
505.5 11.227904
506 11.226615
506.5 11.250085
507 11.251757
507.5 11.265429
508 11.2727
508.5 11.303724
509 11.274062
509.5 11.303006
510 11.294024
510.5 11.327279
511 11.319336
511.5 11.337806
512 11.337122
512.5 11.356491
513 11.365521
513.5 11.373731
514 11.386299
514.5 11.38499
515 11.383327
515.5 11.408138
516 11.387959
516.5 11.414903
517 11.406893
517.5 11.417141
518 11.412946
518.5 11.429292
519 11.416426
519.5 11.42114
520 11.420783
520.5 11.429364
521 11.446027
521.5 11.421909
522 11.419589
522.5 11.422712
523 11.449582
523.5 11.433762
524 11.413109
524.5 11.422257
525 11.420839
525.5 11.422922
526 11.398041
526.5 11.406272
527 11.387642
527.5 11.400104
528 11.38137
528.5 11.368291
529 11.369608
529.5 11.382984
530 11.382701
530.5 11.338512
531 11.345257
531.5 11.333544
532 11.339025
532.5 11.321851
533 11.315776
533.5 11.303123
534 11.306015
534.5 11.302926
535 11.269336
535.5 11.27901
536 11.258878
536.5 11.252692
537 11.241338
537.5 11.245708
538 11.221558
538.5 11.227924
539 11.192861
539.5 11.189345
540 11.187679
540.5 11.17695
541 11.168257
541.5 11.13072
542 11.141956
542.5 11.124898
543 11.115678
543.5 11.114097
544 11.089091
544.5 11.072864
545 11.050837
545.5 11.063409
546 11.053853
546.5 11.032068
547 10.99378
547.5 11.026541
548 10.983348
548.5 10.976551
549 10.965616
549.5 10.939175
550 10.928367
550.5 10.914343
551 10.895373
551.5 10.874993
552 10.869153
552.5 10.862521
553 10.829959
553.5 10.836624
554 10.822008
554.5 10.806628
555 10.799417
555.5 10.787896
556 10.761621
556.5 10.759168
557 10.727772
557.5 10.734286
558 10.719419
558.5 10.705679
559 10.679307
559.5 10.665011
560 10.641946
560.5 10.636874
561 10.657752
561.5 10.627646
562 10.605377
562.5 10.577853
563 10.558446
563.5 10.564345
564 10.542839
564.5 10.525391
565 10.52103
565.5 10.525348
566 10.499948
566.5 10.484834
567 10.48324
567.5 10.463664
568 10.448118
568.5 10.446475
569 10.427348
569.5 10.427245
570 10.413677
570.5 10.401477
571 10.380597
571.5 10.381945
572 10.367876
572.5 10.363745
573 10.342591
573.5 10.346352
574 10.339312
574.5 10.324404
575 10.314463
575.5 10.316189
576 10.300072
576.5 10.298874
577 10.293663
577.5 10.289183
578 10.28746
578.5 10.275431
579 10.271928
579.5 10.249016
580 10.252613
580.5 10.241991
581 10.239497
581.5 10.24634
582 10.226427
582.5 10.232126
583 10.220667
583.5 10.215083
584 10.207834
584.5 10.193644
585 10.192676
585.5 10.196672
586 10.182495
586.5 10.187565
587 10.189174
587.5 10.168548
588 10.183955
588.5 10.178395
589 10.181349
589.5 10.157353
590 10.168745
590.5 10.159642
591 10.171122
591.5 10.15499
592 10.165895
592.5 10.161191
593 10.146481
593.5 10.154769
594 10.15196
594.5 10.145108
595 10.132786
595.5 10.161187
596 10.135617
596.5 10.144004
597 10.154053
597.5 10.147896
598 10.152926
598.5 10.145319
599 10.138068
599.5 10.145862
600 10.149204
600.5 10.143533
601 10.157195
601.5 10.148913
602 10.169265
602.5 10.136628
603 10.136044
603.5 10.149297
604 10.141668
604.5 10.141396
605 10.144697
605.5 10.137038
606 10.141803
606.5 10.150374
607 10.15662
607.5 10.147221
608 10.166571
608.5 10.131522
609 10.148679
609.5 10.132077
610 10.155034
610.5 10.153399
611 10.165799
611.5 10.150261
612 10.153665
612.5 10.161365
613 10.147512
613.5 10.171229
614 10.150907
614.5 10.158885
615 10.158159
615.5 10.156465
616 10.154299
616.5 10.146321
617 10.144589
617.5 10.147373
618 10.166802
618.5 10.157083
619 10.160271
619.5 10.148942
620 10.147822
620.5 10.156333
621 10.159861
621.5 10.160484
622 10.173243
622.5 10.149758
623 10.171987
623.5 10.158841
624 10.154948
624.5 10.158291
625 10.165322
625.5 10.158575
626 10.164353
626.5 10.174895
627 10.163531
627.5 10.168032
628 10.170891
628.5 10.161504
629 10.166597
629.5 10.17704
630 10.166844
630.5 10.17578
631 10.165686
631.5 10.177536
632 10.178725
632.5 10.181068
633 10.167018
633.5 10.175619
634 10.186878
634.5 10.186446
635 10.180034
635.5 10.186852
636 10.17438
636.5 10.181919
637 10.190347
637.5 10.189745
638 10.187802
638.5 10.176525
639 10.183953
639.5 10.184371
640 10.178798
640.5 10.186718
641 10.187847
641.5 10.18107
642 10.183058
642.5 10.185714
643 10.192427
643.5 10.20795
644 10.200568
644.5 10.193944
645 10.197937
645.5 10.200585
646 10.189042
646.5 10.195073
647 10.197483
647.5 10.204452
648 10.193463
648.5 10.187089
649 10.204004
649.5 10.200833
650 10.211829
650.5 10.208246
651 10.217611
651.5 10.205609
652 10.192585
652.5 10.207808
653 10.218269
653.5 10.199439
654 10.203402
654.5 10.215796
655 10.196264
655.5 10.205063
656 10.203891
656.5 10.219913
657 10.200049
657.5 10.210822
658 10.216739
658.5 10.202627
659 10.224071
659.5 10.219576
660 10.224954
660.5 10.200905
661 10.219181
661.5 10.212662
662 10.226319
662.5 10.22668
663 10.228026
663.5 10.217439
664 10.221636
664.5 10.232832
665 10.213742
665.5 10.225021
666 10.217991
666.5 10.221118
667 10.22578
667.5 10.207859
668 10.214768
668.5 10.216071
669 10.22252
669.5 10.18539
670 10.210257
670.5 10.215353
671 10.226781
671.5 10.202992
672 10.226629
672.5 10.207824
673 10.236801
673.5 10.217309
674 10.209608
674.5 10.225548
675 10.210755
675.5 10.227205
676 10.20149
676.5 10.216631
677 10.219621
677.5 10.215028
678 10.215689
678.5 10.213777
679 10.229351
679.5 10.216992
680 10.222322
680.5 10.193577
681 10.20854
681.5 10.209581
682 10.228182
682.5 10.195784
683 10.207365
683.5 10.199679
684 10.187907
684.5 10.19754
685 10.198347
685.5 10.20697
686 10.193451
686.5 10.231619
687 10.205618
687.5 10.200339
688 10.197217
688.5 10.207627
689 10.224354
689.5 10.211432
690 10.216894
690.5 10.203876
691 10.211701
691.5 10.241454
692 10.189604
692.5 10.205509
693 10.186791
693.5 10.197192
694 10.196874
694.5 10.209818
695 10.211056
695.5 10.209897
696 10.196415
696.5 10.194556
697 10.211799
697.5 10.216545
698 10.209081
698.5 10.201136
699 10.208406
699.5 10.208394
700 10.197081
700.5 10.191467
701 10.220296
701.5 10.208216
702 10.202793
702.5 10.19245
703 10.195202
703.5 10.173751
704 10.189978
704.5 10.219466
705 10.198666
705.5 10.209599
706 10.194094
706.5 10.202869
707 10.21014
707.5 10.192753
708 10.211053
708.5 10.191908
709 10.198799
709.5 10.202594
710 10.205599
710.5 10.216165
711 10.187919
711.5 10.192146
712 10.198968
712.5 10.215586
713 10.200024
713.5 10.20605
714 10.200815
714.5 10.203449
715 10.219035
715.5 10.210483
716 10.193516
716.5 10.19851
717 10.218626
717.5 10.202838
718 10.216059
718.5 10.192892
719 10.199509
719.5 10.221095
720 10.217325
720.5 10.204848
721 10.236524
721.5 10.202534
722 10.212743
722.5 10.212693
723 10.236304
723.5 10.2143
724 10.215983
724.5 10.241192
725 10.220572
725.5 10.222497
726 10.226723
726.5 10.238744
727 10.220706
727.5 10.238101
728 10.215422
728.5 10.224594
729 10.226549
729.5 10.218385
730 10.238537
730.5 10.227381
731 10.220157
731.5 10.248449
732 10.237875
732.5 10.236272
733 10.278965
733.5 10.245208
734 10.248818
734.5 10.244194
735 10.239945
735.5 10.275622
736 10.252734
736.5 10.225173
737 10.251241
737.5 10.255483
738 10.254879
738.5 10.246655
739 10.262581
739.5 10.244256
740 10.26438
740.5 10.251207
741 10.265324
741.5 10.250429
742 10.260598
742.5 10.268438
743 10.272667
743.5 10.273916
744 10.273671
744.5 10.267064
745 10.258061
745.5 10.277768
746 10.291643
746.5 10.292313
747 10.274792
747.5 10.285281
748 10.278855
748.5 10.290165
749 10.258851
749.5 10.284946
750 10.281896
750.5 10.295846
751 10.301359
751.5 10.301086
752 10.290644
752.5 10.304794
753 10.314354
753.5 10.312165
754 10.290252
754.5 10.300812
755 10.302946
755.5 10.316928
756 10.306874
756.5 10.34036
757 10.318461
757.5 10.327959
758 10.312441
758.5 10.289606
759 10.321779
759.5 10.317711
760 10.314366
760.5 10.344503
761 10.362336
761.5 10.333017
762 10.335028
762.5 10.310254
763 10.328759
763.5 10.351192
764 10.33208
764.5 10.325976
765 10.344353
765.5 10.352561
766 10.34296
766.5 10.360212
767 10.352631
767.5 10.336807
768 10.349238
768.5 10.344826
769 10.352124
769.5 10.364797
770 10.32251
770.5 10.369455
771 10.377504
771.5 10.357262
772 10.365601
772.5 10.370599
773 10.383297
773.5 10.391556
774 10.369977
774.5 10.378982
775 10.383471
775.5 10.386779
776 10.377385
776.5 10.383605
777 10.379693
777.5 10.412637
778 10.400342
778.5 10.409455
779 10.402654
779.5 10.399898
780 10.404093
780.5 10.410777
781 10.392389
781.5 10.398581
782 10.42106
782.5 10.435252
783 10.383294
783.5 10.40722
784 10.407265
784.5 10.420248
785 10.430852
785.5 10.436922
786 10.423966
786.5 10.432025
787 10.404258
787.5 10.413498
788 10.430245
788.5 10.402209
789 10.424487
789.5 10.437564
790 10.429636
790.5 10.446796
791 10.445759
791.5 10.465311
792 10.469417
792.5 10.407591
793 10.461891
793.5 10.46478
794 10.429125
794.5 10.489271
795 10.478096
795.5 10.436213
796 10.442846
796.5 10.468641
797 10.449173
797.5 10.468823
798 10.487781
798.5 10.49657
799 10.440084
799.5 10.471005
800 10.463358
800.5 10.47732
801 10.493627
801.5 10.441364
802 10.49885
802.5 10.498453
803 10.521411
803.5 10.479044
804 10.485438
804.5 10.486618
805 10.516945
805.5 10.514933
806 10.515971
806.5 10.525516
807 10.494534
807.5 10.488478
808 10.515432
808.5 10.528293
809 10.518887
809.5 10.512459
810 10.501771
810.5 10.544919
811 10.556688
811.5 10.531489
812 10.516845
812.5 10.529573
813 10.506635
813.5 10.540561
814 10.525093
814.5 10.525528
815 10.52377
815.5 10.540333
816 10.497892
816.5 10.559199
817 10.547366
817.5 10.527389
818 10.530978
818.5 10.501646
819 10.518324
819.5 10.5163
820 10.49282
820.5 10.548923
821 10.554107
821.5 10.526489
822 10.55745
822.5 10.524243
823 10.493886
823.5 10.527457
824 10.529105
824.5 10.53636
825 10.523932
825.5 10.526935
826 10.503852
826.5 10.486855
827 10.566195
827.5 10.52523
828 10.526896
828.5 10.520463
829 10.467536
829.5 10.523903
830 10.524154
830.5 10.564589
831 10.499652
831.5 10.468911
832 10.4912
832.5 10.503605
833 10.503042
833.5 10.511828
834 10.401934
834.5 10.470627
835 10.478516
835.5 10.465432
836 10.46243
836.5 10.433816
837 10.463158
837.5 10.460249
838 10.449664
838.5 10.442002
839 10.480298
839.5 10.424827
840 10.448923
840.5 10.39635
841 10.471216
841.5 10.443845
842 10.462219
842.5 10.471164
843 10.427962
843.5 10.423783
844 10.406624
844.5 10.444495
845 10.473931
845.5 10.334632
846 10.324949
846.5 10.36424
847 10.429129
847.5 10.448702
848 10.434245
848.5 10.405113
849 10.420766
849.5 10.363393
850 10.383881
850.5 10.375825
851 10.353254
851.5 10.391592
852 10.408336
852.5 10.410023
853 10.464861
853.5 10.269678
854 10.48143
854.5 10.355301
855 10.459115
855.5 10.454649
856 10.48206
856.5 10.476692
857 10.50333
857.5 10.414132
858 10.465416
858.5 10.49633
859 10.443573
859.5 10.475875
860 10.580393
860.5 10.418505
861 7.574549
861.5 7.520384
862 7.661019
862.5 7.517946
863 7.491346
863.5 7.608785
864 7.599415
864.5 7.672555
865 7.475654
865.5 7.662677
866 7.590216
866.5 7.624291
867 7.60802
867.5 7.608659
868 7.697444
868.5 7.407545
869 7.697857
869.5 7.457878
870 7.623794
870.5 7.453059
871 7.638799
871.5 7.530418
872 7.626919
872.5 7.627999
873 7.527944
873.5 7.704442
874 7.513213
874.5 7.754774
875 7.614399
875.5 7.726596
876 7.572249
876.5 7.666827
877 7.633249
877.5 7.648271
878 7.782094
878.5 7.601353
879 7.785838
879.5 7.561778
880 7.756899
880.5 7.518882
881 7.78193
881.5 7.589413
882 7.669512
882.5 7.656582
883 7.549877
883.5 7.69489
884 7.563052
884.5 7.764175
885 7.553995
885.5 7.778034
886 7.620171
886.5 7.838768
887 7.647108
887.5 7.679997
888 7.741031
888.5 7.689217
889 7.78259
889.5 7.656577
890 7.841869
890.5 7.653084
891 7.746484
891.5 7.696685
892 7.741203
892.5 7.752476
893 7.759705
893.5 7.789862
894 7.585465
894.5 7.84951
895 7.684701
895.5 7.86217
896 7.55831
896.5 7.781141
897 7.7076
897.5 7.800443
898 7.795856
898.5 7.744122
899 7.816565
899.5 7.728858
900 7.808682
900.5 7.707093
901 7.851691
901.5 7.705203
902 7.766108
902.5 7.750002
903 7.745821
903.5 7.827844
904 7.772509
904.5 7.945919
905 7.665476
905.5 7.881361
906 7.527218
906.5 7.912523
907 7.783529
907.5 7.881107
908 7.792327
908.5 7.820965
909 7.837948
909.5 7.774621
910 7.917994
910.5 7.691681
911 7.935075
911.5 7.798831
912 7.836922
912.5 7.87145
913 7.891627
913.5 7.906345
914 7.727256
914.5 7.919665
915 7.673966
915.5 7.979572
916 7.716361
916.5 7.961036
917 7.707915
917.5 7.837039
918 7.839449
918.5 7.850996
919 7.897269
919.5 7.688198
920 7.901046
920.5 7.857451
921 7.85672
921.5 7.785585
922 7.974467
922.5 7.937844
923 7.848216
923.5 7.925775
924 7.916721
924.5 8.040255
925 7.840063
925.5 7.98519
926 7.762612
926.5 7.961027
927 7.828791
927.5 7.961474
928 7.888498
928.5 7.781163
929 8.012188
929.5 7.90555
930 7.973636
930.5 7.813272
931 7.982935
931.5 7.896295
932 8.044688
932.5 7.916892
933 7.894095
933.5 7.906316
934 7.933688
934.5 7.985982
935 7.92647
935.5 8.075555
936 7.887771
936.5 7.985599
937 7.910224
937.5 7.94507
938 7.927274
938.5 8.01027
939 7.93718
939.5 7.840974
940 8.045159
940.5 7.87605
941 8.111284
941.5 7.847591
942 8.04439
942.5 7.912511
943 8.007587
943.5 8.003659
944 7.971211
944.5 7.982269
945 8.005709
945.5 8.041478
946 7.922474
946.5 8.093937
947 8.012601
947.5 8.072654
948 7.96343
948.5 7.979544
949 8.050559
949.5 7.977809
950 8.1126
950.5 7.850822
951 8.100661
951.5 7.81486
952 8.122576
952.5 7.940709
953 8.040048
953.5 7.928703
954 8.032807
954.5 7.999869
955 8.043501
955.5 8.111859
956 7.982874
956.5 8.149715
957 7.997289
957.5 8.122955
958 8.056976
958.5 8.109508
959 8.081146
959.5 8.084808
960 8.203874
960.5 7.934406
961 8.131655
961.5 7.992778
962 8.122321
962.5 7.937088
963 8.140635
963.5 8.008069
964 8.068111
964.5 8.069286
965 7.912967
965.5 8.129196
966 8.035445
966.5 8.189224
967 7.976744
967.5 8.202507
968 8.042917
968.5 8.154634
969 8.170717
969.5 8.093575
970 8.206693
970.5 8.088358
971 8.278071
971.5 8.08295
972 8.300184
972.5 8.124722
973 8.131386
973.5 8.080088
974 8.046137
974.5 8.193185
975 8.1229
975.5 8.220805
976 7.916511
976.5 8.182266
977 8.086672
977.5 8.207941
978 8.066759
978.5 8.262061
979 8.076557
979.5 8.261098
980 8.200943
980.5 8.168396
981 8.270741
981.5 8.130735
982 8.286931
982.5 8.145566
983 8.248565
983.5 8.161005
984 8.247989
984.5 8.192865
985 8.088146
985.5 8.275846
986 8.173529
986.5 8.264344
987 7.989772
987.5 8.290311
988 7.976604
988.5 8.254756
989 8.152708
989.5 8.250542
990 8.224104
990.5 8.209827
991 8.281192
991.5 8.18106
992 8.352234
992.5 8.123162
993 8.298801
993.5 8.189096
994 8.259292
994.5 8.260049
995 8.258425
995.5 8.338725
996 8.180328
996.5 8.367364
997 8.193118
997.5 8.357666
998 8.146378
998.5 8.287337
999 8.103735
999.5 8.270866
1000 8.259764
1000.5 8.335488
1001 8.343571
1001.5 8.103877
1002 8.316999
1002.5 8.271714
1003 8.315907
1003.5 8.300322
1004 8.387892
1004.5 8.295414
1005 8.244431
1005.5 8.38155
1006 8.250044
1006.5 8.462989
1007 8.282724
1007.5 8.455836
1008 8.213735
1008.5 8.375415
1009 8.276675
1009.5 8.29627
1010 8.2409
1010.5 8.263283
1011 8.365121
1011.5 8.315657
1012 8.385026
1012.5 8.215837
1013 8.424659
1013.5 8.269586
1014 8.387282
1014.5 8.309394
1015 8.383194
1015.5 8.412913
1016 8.351185
1016.5 8.496049
1017 8.379187
1017.5 8.476063
1018 8.310025
1018.5 8.406875
1019 8.291369
1019.5 8.429923
1020 8.371498
1020.5 8.44041
1021 8.377089
1021.5 8.315754
1022 8.505173
1022.5 8.289456
1023 8.519583
1023.5 8.35136
1024 8.456899
1024.5 8.324507
1025 8.431089
1025.5 8.494973
1026 8.451442
1026.5 8.417217
1027 8.381449
1027.5 8.49363
1028 8.342294
1028.5 8.626761
1029 8.473389
1029.5 8.5275
1030 8.389271
1030.5 8.39221
1031 8.502413
1031.5 8.505531
1032 8.561556
1032.5 8.329802
1033 8.5933
1033.5 8.250891
1034 8.491063
1034.5 8.336972
1035 8.506919
1035.5 8.473477
1036 8.51883
1036.5 8.586258
1037 8.54848
1037.5 8.587197
1038 8.405026
1038.5 8.636496
1039 8.521032
1039.5 8.599555
1040 8.43937
1040.5 8.560196
1041 8.546989
1041.5 8.48672
1042 8.724291
1042.5 8.457609
1043 8.606572
1043.5 8.522089
1044 8.609145
1044.5 8.33884
1045 8.603743
1045.5 8.638135
1046 8.604129
1046.5 8.621973
1047 8.386037
1047.5 8.596168
1048 8.61689
1048.5 8.684908
1049 8.502503
1049.5 8.73487
1050 8.589683
1050.5 8.678983
1051 8.677078
1051.5 8.565293
1052 8.654077
1052.5 8.549482
1053 8.724179
1053.5 8.593214
1054 8.74997
1054.5 8.584796
1055 8.663528
1055.5 8.630974
1056 8.587003
1056.5 8.673594
1057 8.618398
1057.5 8.697981
1058 8.512128
1058.5 8.788259
1059 8.576938
1059.5 8.807649
1060 8.6364
1060.5 8.734687
1061 8.634308
1061.5 8.723646
1062 8.809666
1062.5 8.727562
1063 8.877953
1063.5 8.693597
1064 8.756622
1064.5 8.669547
1065 8.727895
1065.5 8.813493
1066 8.745423
1066.5 8.7449
1067 8.66093
1067.5 8.801667
1068 8.544143
1068.5 8.802491
1069 8.573525
1069.5 8.831511
1070 8.592572
1070.5 8.846634
1071 8.785396
1071.5 8.839648
1072 8.820292
1072.5 8.736576
1073 8.812147
1073.5 8.692338
1074 8.811451
1074.5 8.65724
1075 8.898891
1075.5 8.797877
1076 8.812682
1076.5 8.874632
1077 8.742201
1077.5 8.868246
1078 8.714164
1078.5 8.967485
1079 8.587918
1079.5 8.951755
1080 8.734615
1080.5 8.922452
1081 8.760997
1081.5 8.797133
1082 8.838887
1082.5 8.798856
1083 8.942245
1083.5 8.737487
1084 8.966444
1084.5 8.872536
1085 8.911269
1085.5 8.86044
1086 8.871619
1086.5 8.905328
1087 8.896354
1087.5 9.009428
1088 8.850784
1088.5 9.094292
1089 8.83183
1089.5 8.976924
1090 8.741031
1090.5 8.916016
1091 8.895146
1091.5 8.887053
1092 8.895332
1092.5 8.733704
1093 9.057532
1093.5 8.969887
1094 9.057087
1094.5 8.796541
1095 9.1094
1095.5 8.971613
1096 8.997922
1096.5 8.974773
1097 8.965569
1097.5 9.03384
1098 8.92821
1098.5 9.049662
1099 8.927936
1099.5 9.132942
1100 9.024889
1100.5 9.080888
1101 9.007417
1101.5 8.989923
1102 9.102064
1102.5 9.047323
1103 9.001441
1103.5 8.88371
1104 9.093015
1104.5 8.924811
1105 9.086408
1105.5 8.940087
1106 9.133369
1106.5 9.053169
1107 9.1253
1107.5 9.212
1108 9.093119
1108.5 9.149361
1109 9.004336
1109.5 9.185974
1110 9.082288
1110.5 9.193884
1111 9.119556
1111.5 9.161092
1112 9.131799
1112.5 9.063154
1113 9.21228
1113.5 9.084494
1114 9.202438
1114.5 8.953866
1115 9.218111
1115.5 9.01503
1116 9.25147
1116.5 9.099643
1117 9.187365
1117.5 9.176607
1118 9.145217
1118.5 9.301321
1119 9.129
1119.5 9.332266
1120 9.06831
1120.5 9.193201
1121 9.084346
1121.5 9.195855
1122 9.303477
1122.5 9.276133
1123 9.29561
1123.5 9.198091
1124 9.346613
1124.5 9.088142
1125 9.35877
1125.5 9.198012
1126 9.314905
1126.5 9.154207
1127 9.255349
1127.5 9.299583
1128 9.282038
1128.5 9.376605
1129 9.162858
1129.5 9.408445
1130 9.266666
1130.5 9.379648
1131 9.194103
1131.5 9.326089
1132 9.228114
1132.5 9.189307
1133 9.201139
1133.5 9.14844
1134 9.392864
1134.5 9.250122
1135 9.393247
1135.5 9.217429
1136 9.420834
1136.5 9.395763
1137 9.341106
1137.5 9.343034
1138 9.243335
1138.5 9.449628
1139 9.31524
1139.5 9.413013
1140 9.228878
1140.5 9.459443
1141 9.330042
1141.5 9.439859
1142 9.265257
1142.5 9.355737
1143 9.390069
1143.5 9.36068
1144 9.472144
1144.5 9.285989
1145 9.508104
1145.5 9.310981
1146 9.504371
1146.5 9.403848
1147 9.438896
1147.5 9.510622
1148 9.436549
1148.5 9.45515
1149 9.289559
1149.5 9.53487
1150 9.349416
1150.5 9.469497
1151 9.305865
1151.5 9.504061
1152 9.411582
1152.5 9.46193
1153 9.54499
1153.5 9.456855
1154 9.583773
1154.5 9.453739
1155 9.639675
1155.5 9.519738
1156 9.601631
1156.5 9.516281
1157 9.589261
1157.5 9.577666
1158 9.470393
1158.5 9.641536
1159 9.479863
1159.5 9.632657
1160 9.404254
1160.5 9.688559
1161 9.389865
1161.5 9.65396
1162 9.549262
1162.5 9.59072
1163 9.58851
1163.5 9.551287
1164 9.69219
1164.5 9.594745
1165 9.725982
1165.5 9.502127
1166 9.717812
1166.5 9.584565
1167 9.565916
1167.5 9.751122
1168 9.63653
1168.5 9.744405
1169 9.594039
1169.5 9.734993
1170 9.524394
1170.5 9.758088
1171 9.632213
1171.5 9.692803
1172 9.551968
1172.5 9.642399
1173 9.689604
1173.5 9.658289
1174 9.808487
1174.5 9.545443
1175 9.768175
1175.5 9.718297
1176 9.799966
1176.5 9.60935
1177 9.782586
1177.5 9.716851
1178 9.743349
1178.5 9.812518
1179 9.679649
1179.5 9.836515
1180 9.676997
1180.5 9.807121
1181 9.648787
1181.5 9.837436
1182 9.735671
1182.5 9.84185
1183 9.720309
1183.5 9.614377
1184 9.809415
1184.5 9.752969
1185 9.868865
1185.5 9.636038
1186 9.891447
1186.5 9.711789
1187 9.783737
1187.5 9.712161
1188 9.724511
1188.5 9.728657
1189 9.711058
1189.5 9.665239
1190 9.521652
1190.5 9.888553
1191 9.750916
1191.5 9.978825
1192 9.832888
1192.5 9.967858
1193 9.778599
1193.5 9.954357
1194 9.838471
1194.5 9.949472
1195 9.888741
1195.5 9.81378
1196 9.934895
1196.5 9.921773
1197 9.970185
1197.5 9.783018
1198 10.004483
1198.5 9.822574
1199 10.034701
1199.5 9.893512
1200 10.005241
1200.5 9.916574
1201 9.969613
1201.5 10.012408
1202 9.943964
1202.5 10.127783
1203 9.907403
1203.5 10.043201
1204 9.98004
1204.5 10.034599
1205 10.012306
1205.5 10.04274
1206 9.986991
1206.5 9.874208
1207 10.068241
1207.5 9.951264
1208 10.136078
1208.5 9.808898
1209 10.088471
1209.5 9.967849
1210 10.086948
1210.5 10.065436
1211 10.085275
1211.5 10.082521
1212 10.020418
1212.5 10.21796
1213 10.022431
1213.5 10.187914
1214 10.057567
1214.5 10.189678
1215 10.146286
1215.5 10.060789
1216 10.130128
1216.5 10.103867
1217 10.165114
1217.5 10.034392
1218 10.227976
1218.5 10.006616
1219 10.226442
1219.5 10.029597
1220 10.197444
1220.5 10.107222
1221 10.134544
1221.5 10.188716
1222 10.162637
1222.5 10.297044
1223 10.096959
1223.5 10.281992
1224 10.204634
1224.5 10.290717
1225 10.206929
1225.5 10.264733
1226 10.223647
1226.5 10.206134
1227 10.326413
1227.5 10.076495
1228 10.343505
1228.5 10.138985
1229 10.240035
1229.5 10.097813
1230 10.243983
1230.5 10.227844
1231 10.272484
1231.5 10.296112
1232 10.069215
1232.5 10.402484
1233 10.239688
1233.5 10.364614
1234 10.18264
1234.5 10.327072
1235 10.303795
1235.5 10.386767
1236 10.363872
1236.5 10.309724
1237 10.477068
1237.5 10.356614
1238 10.434993
1238.5 10.292988
1239 10.464896
1239.5 10.281067
1240 10.469869
1240.5 10.350438
1241 10.320167
1241.5 10.463674
1242 10.393739
1242.5 10.481521
1243 10.243222
1243.5 10.483838
1244 10.284164
1244.5 10.550929
1245 10.329573
1245.5 10.488801
1246 10.414838
1246.5 10.519914
1247 10.47805
1247.5 10.412141
1248 10.559725
1248.5 10.327545
1249 10.515816
1249.5 10.416327
1250 10.517672
1250.5 10.500777
1251 10.572188
1251.5 10.488277
1252 10.344682
1252.5 10.578882
1253 10.430294
1253.5 10.561801
1254 10.35173
1254.5 10.540974
1255 10.405432
1255.5 10.637143
1256 10.530087
1256.5 10.624915
1257 10.595144
1257.5 10.564506
1258 10.642187
1258.5 10.545945
1259 10.738322
1259.5 10.482155
1260 10.699442
1260.5 10.564847
1261 10.606205
1261.5 10.602198
1262 10.555855
1262.5 10.677998
1263 10.514847
1263.5 10.652798
1264 10.401979
1264.5 10.687509
1265 10.557463
1265.5 10.679254
1266 10.572822
1266.5 10.717186
1267 10.720997
1267.5 10.633838
1268 10.728737
1268.5 10.505732
1269 10.795386
1269.5 10.678039
1270 10.848361
1270.5 10.614256
1271 10.818505
1271.5 10.733119
1272 10.726909
1272.5 10.801432
1273 10.612633
1273.5 10.867608
1274 10.673456
1274.5 10.808159
1275 10.619248
1275.5 10.792476
1276 10.771087
1276.5 10.784489
1277 10.787008
1277.5 10.624254
1278 10.886856
1278.5 10.815272
1279 10.850656
1279.5 10.650463
1280 10.905316
1280.5 10.776848
1281 10.847469
1281.5 10.819155
1282 10.906027
1282.5 10.88756
1283 10.839893
1283.5 10.934606
1284 10.812167
1284.5 10.982835
1285 10.8046
1285.5 10.978346
1286 10.822514
1286.5 10.920438
1287 10.892513
1287.5 10.94602
1288 10.934296
1288.5 10.780244
1289 11.005337
1289.5 10.836876
1290 10.940102
1290.5 10.835782
1291 10.971466
1291.5 10.819616
1292 11.080505
1292.5 10.93211
1293 10.934618
1293.5 10.989368
1294 10.87634
1294.5 11.068504
1295 10.910051
1295.5 11.063831
1296 10.918439
1296.5 11.06144
1297 10.975513
1297.5 10.953701
1298 11.125892
1298.5 10.959971
1299 11.112425
1299.5 10.875673
1300 11.111882
1300.5 10.791515
1301 11.152214
1301.5 11.003104
1302 11.118788
1302.5 11.07818
1303 10.969369
1303.5 11.119308
1304 11.029769
1304.5 11.207715
1305 10.957098
1305.5 11.204119
1306 11.117586
1306.5 11.106088
1307 11.159735
1307.5 11.116465
1308 11.25677
1308.5 11.082327
1309 11.2665
1309.5 11.029957
1310 11.269861
1310.5 11.12673
1311 11.240438
1311.5 11.097682
1312 11.241076
1312.5 11.241647
1313 11.287737
1313.5 11.303914
1314 11.169573
1314.5 11.38605
1315 11.306338
1315.5 11.267632
1316 11.14285
1316.5 11.255888
1317 11.236145
1317.5 11.293042
1318 11.238667
1318.5 11.2293
1319 11.348078
1319.5 11.268272
1320 11.317609
1320.5 11.20406
1321 11.311007
1321.5 11.211488
1322 11.31056
1322.5 11.169889
1323 11.227541
1323.5 11.389488
1324 11.346762
1324.5 11.308672
1325 11.111981
1325.5 11.357877
1326 11.308267
1326.5 11.381229
1327 11.245611
1327.5 11.474639
1328 11.301901
1328.5 11.365727
1329 11.394033
1329.5 11.295832
1330 11.475229
1330.5 11.35089
1331 11.469308
1331.5 11.34397
1332 11.485019
1332.5 11.450154
1333 11.489691
1333.5 11.410473
1334 11.387797
1334.5 11.547922
1335 11.424258
1335.5 11.633843
1336 11.413753
1336.5 11.566433
1337 11.324703
1337.5 11.574331
1338 11.421448
1338.5 11.462709
1339 11.504194
1339.5 11.453655
1340 11.582771
1340.5 11.443195
1341 11.655781
1341.5 11.444598
1342 11.623005
1342.5 11.553279
1343 11.558967
1343.5 11.528689
1344 11.493202
1344.5 11.63447
1345 11.412469
1345.5 11.583761
1346 11.402915
1346.5 11.62301
1347 11.413804
1347.5 11.639598
1348 11.524495
1348.5 11.711751
1349 11.650284
1349.5 11.557508
1350 11.723405
1350.5 11.452987
1351 11.720888
1351.5 11.527015
1352 11.727135
1352.5 11.571257
1353 11.637362
1353.5 11.550917
1354 11.623267
1354.5 11.796314
1355 11.717197
1355.5 11.883817
1356 11.666723
1356.5 11.813738
1357 11.821546
1357.5 11.833566
1358 11.671633
1358.5 11.69145
1359 11.770865
1359.5 11.771591
1360 11.807183
1360.5 11.582444
1361 11.650001
1361.5 11.530861
1362 11.912475
1362.5 11.967096
1363 11.908212
1363.5 11.533132
1364 11.727875
1364.5 11.886229
1365 12.064156
1365.5 11.961626
1366 11.648185
1366.5 11.800179
1367 11.66103
1367.5 11.936518
1368 11.80426
1368.5 11.929696
1369 11.798626
1369.5 11.77768
1370 11.8168
1370.5 11.765277
1371 12.067182
1371.5 11.914405
1372 12.08374
1372.5 11.785896
1373 11.900529
1373.5 11.751629
1374 11.930931
1374.5 11.922713
1375 11.87549
1375.5 11.848159
1376 11.919524
1376.5 12.100337
1377 11.917936
1377.5 11.975394
1378 11.862402
1378.5 12.273609
1379 11.961953
1379.5 11.806462
1380 11.934663
1380.5 12.164512
1381 12.216905
1381.5 11.641084
1382 11.770469
1382.5 12.015537
1383 12.35174
1383.5 11.925166
1384 11.977705
1384.5 11.966398
1385 12.168933
1385.5 12.220895
1386 12.137035
1386.5 12.058479
1387 11.721872
1387.5 12.10522
1388 12.256699
1388.5 12.291517
1389 12.06215
1389.5 12.225299
1390 12.176447
1390.5 12.038745
1391 12.138017
1391.5 11.894182
1392 12.254595
1392.5 12.339048
1393 12.33781
1393.5 11.961863
1394 12.040278
1394.5 12.022186
1395 12.195522
1395.5 12.193888
1396 12.120137
1396.5 12.529118
1397 12.37362
1397.5 12.213322
1398 12.029075
1398.5 12.228068
1399 12.006257
1399.5 12.097695
1400 12.142754
1400.5 12.386494
1401 12.458728
1401.5 12.462736
1402 12.390596
1402.5 12.22087
1403 12.349674
1403.5 12.053705
1404 12.103632
1404.5 12.329482
1405 12.504274
1405.5 12.390198
1406 12.230228
1406.5 12.349901
1407 12.328244
1407.5 12.40828
1408 12.172598
1408.5 12.331135
1409 12.421305
1409.5 12.647986
1410 12.34722
1410.5 12.462761
1411 12.330763
1411.5 12.367366
1412 12.3759
1412.5 12.2616
1413 12.390357
1413.5 12.25506
1414 12.547082
1414.5 12.557723
1415 12.722099
1415.5 12.46426
1416 12.38435
1416.5 12.510122
1417 12.378325
1417.5 12.495111
1418 12.227019
1418.5 12.569101
1419 12.539186
1419.5 12.678765
1420 12.460409
1420.5 12.560473
1421 12.437876
1421.5 12.400753
1422 12.481955
1422.5 12.354142
1423 12.711953
1423.5 12.503265
1424 12.686984
1424.5 12.543857
1425 12.603475
1425.5 12.497476
1426 12.558153
1426.5 12.541956
1427 12.446374
1427.5 12.781817
1428 12.517828
1428.5 12.708758
1429 12.503348
1429.5 12.5934
1430 12.403548
1430.5 12.619697
1431 12.646767
1431.5 12.670955
1432 12.74474
1432.5 12.472517
1433 12.695345
1433.5 12.644628
1434 12.808177
1434.5 12.581395
1435 12.701687
1435.5 12.635124
1436 12.778075
1436.5 12.704098
1437 12.721853
1437.5 12.929052
1438 12.81608
1438.5 12.86855
1439 12.734863
1439.5 12.899289
1440 12.726824
1440.5 12.793982
1441 12.712575
1441.5 12.699367
1442 12.846343
1442.5 12.79449
1443 12.847893
1443.5 12.54624
1444 12.81416
1444.5 12.68701
1445 13.032368
1445.5 12.863952
1446 12.982306
1446.5 12.837614
1447 12.818001
1447.5 12.844573
1448 12.781458
1448.5 12.915881
1449 12.752107
1449.5 12.925798
1450 12.850116
1450.5 13.033165
1451 12.949571
1451.5 12.943117
1452 12.940426
1452.5 12.842613
1453 13.032617
1453.5 12.854104
1454 13.014954
1454.5 12.783241
1455 13.070479
1455.5 12.805851
1456 13.068962
1456.5 12.921473
1457 13.020448
1457.5 12.995464
1458 12.868954
1458.5 13.053195
1459 12.933707
1459.5 13.160236
1460 12.978975
1460.5 13.227057
1461 13.072164
1461.5 13.078104
1462 13.190962
1462.5 13.190515
1463 13.326257
1463.5 13.155583
1464 13.216625
1464.5 12.976933
1465 13.170341
1465.5 13.044192
1466 13.181584
1466.5 12.973306
1467 13.069099
1467.5 13.144109
1468 13.105826
1468.5 13.09481
1469 12.901996
1469.5 13.275388
1470 13.078889
1470.5 13.252655
1471 13.126545
1471.5 13.280275
1472 13.191661
1472.5 13.274191
1473 13.289517
1473.5 13.172869
1474 13.246417
1474.5 13.183106
1475 13.309097
1475.5 13.122307
1476 13.334234
1476.5 13.176
1477 13.281125
1477.5 13.272637
1478 13.207495
1478.5 13.32545
1479 13.309725
1479.5 13.357563
1480 13.252302
1480.5 13.508196
1481 13.329022
1481.5 13.528679
1482 13.412628
1482.5 13.504046
1483 13.471699
1483.5 13.416559
1484 13.467646
1484.5 13.338847
1485 13.425846
1485.5 13.26362
1486 13.457517
1486.5 13.380574
1487 13.482711
1487.5 13.463782
1488 13.504229
1488.5 13.508236
1489 13.317129
1489.5 13.547392
1490 13.345605
1490.5 13.560583
1491 13.328898
1491.5 13.540603
1492 13.350655
1492.5 13.546118
1493 13.51365
1493.5 13.510899
1494 13.512087
1494.5 13.469246
1495 13.640326
1495.5 13.505487
1496 13.689746
1496.5 13.514708
1497 13.813078
1497.5 13.732335
1498 13.722171
1498.5 13.639659
1499 13.591546
1499.5 13.674073
1500 13.498488
1500.5 13.724804
1501 13.47405
1501.5 13.755314
1502 13.578504
1502.5 13.707787
1503 13.561359
1503.5 13.620506
1504 13.68411
1504.5 13.667408
1505 13.756938
1505.5 13.447265
1506 13.770059
1506.5 13.740923
1507 13.756238
1507.5 13.653894
1508 13.814649
1508.5 13.776092
1509 13.823751
1509.5 13.872625
1510 13.832125
1510.5 14.026992
1511 13.835129
1511.5 13.848564
1512 13.723882
1512.5 13.819538
1513 13.801983
1513.5 13.863301
1514 13.763438
1514.5 13.710491
1515 13.871212
1515.5 13.827398
1516 13.878898
1516.5 13.643678
1517 13.961346
1517.5 13.803053
1518 13.995355
1518.5 13.914362
1519 13.968283
1519.5 13.985471
1520 14.002195
1520.5 14.04397
1521 14.001256
1521.5 14.117645
1522 13.876304
1522.5 14.001769
1523 13.880692
1523.5 13.990809
1524 13.984734
1524.5 13.994417
1525 14.019078
1525.5 13.878565
1526 14.103913
1526.5 13.927752
1527 14.111523
1527.5 13.803892
1528 14.159015
1528.5 13.979429
1529 14.13824
1529.5 14.118442
1530 14.064415
1530.5 14.18753
1531 13.992679
1531.5 14.263931
1532 14.148401
1532.5 14.156319
1533 14.035974
1533.5 14.19031
1534 14.148661
1534.5 14.127892
1535 14.280257
1535.5 14.108998
1536 14.251925
1536.5 14.042096
1537 14.258575
1537.5 14.028218
1538 14.236501
1538.5 14.129816
1539 14.231358
1539.5 14.171192
1540 14.208467
1540.5 14.264268
1541 14.285761
1541.5 14.393426
1542 14.197621
1542.5 14.469193
1543 14.331205
1543.5 14.397438
1544 14.363077
1544.5 14.481963
1545 14.365377
1545.5 14.26893
1546 14.419511
1546.5 14.257492
1547 14.435621
1547.5 14.312488
1548 14.347345
1548.5 14.220613
1549 14.413962
1549.5 14.400072
1550 14.397329
1550.5 14.415525
1551 14.25018
1551.5 14.47701
1552 14.375558
1552.5 14.485352
1553 14.317574
1553.5 14.647818
1554 14.517343
1554.5 14.678575
1555 14.502527
1555.5 14.439225
1556 14.523004
1556.5 14.501829
1557 14.59153
1557.5 14.442782
1558 14.614266
1558.5 14.415056
1559 14.627118
1559.5 14.502001
1560 14.501064
1560.5 14.591415
1561 14.557739
1561.5 14.636011
1562 14.487521
1562.5 14.779396
1563 14.46809
1563.5 14.804325
1564 14.63438
1564.5 14.774534
1565 14.581683
1565.5 14.659405
1566 14.623283
1566.5 14.649893
1567 14.743936
1567.5 14.547248
1568 14.814912
1568.5 14.618999
1569 14.76461
1569.5 14.695385
1570 14.747627
1570.5 14.737976
1571 14.64069
1571.5 14.733845
1572 14.621913
1572.5 14.856105
1573 14.637576
1573.5 14.869751
1574 14.661704
1574.5 14.922476
1575 14.842585
1575.5 14.850296
1576 14.880514
1576.5 14.701723
1577 14.886853
1577.5 14.803877
1578 14.875731
1578.5 14.719525
1579 15.00632
1579.5 14.827529
1580 14.90576
1580.5 14.85054
1581 14.833228
1581.5 14.97198
1582 14.842936
1582.5 14.961073
1583 14.816387
1583.5 15.043855
1584 14.881627
1584.5 15.027902
1585 14.927328
1585.5 15.038773
1586 15.181495
1586.5 15.088284
1587 15.128632
1587.5 14.768693
1588 15.123416
1588.5 14.950021
1589 15.065536
1589.5 14.90541
1590 15.099047
1590.5 15.063776
1591 15.079272
1591.5 15.072186
1592 15.045249
1592.5 15.186282
1593 15.049431
1593.5 15.137629
1594 15.062076
1594.5 15.248674
1595 15.160754
1595.5 15.227538
1596 15.061472
1596.5 15.102589
1597 15.16488
1597.5 15.12796
1598 15.243548
1598.5 14.946648
1599 15.292954
1599.5 15.056616
1600 15.22966
1600.5 15.177326
1601 15.255263
1601.5 15.199569
1602 15.218818
1602.5 15.314722
1603 15.188795
1603.5 15.369557
1604 15.211871
1604.5 15.370959
1605 15.229963
1605.5 15.308648
1606 15.38683
1606.5 15.418549
1607 15.416466
1607.5 15.349193
1608 15.490031
1608.5 15.324466
1609 15.428995
1609.5 15.228114
1610 15.424141
1610.5 15.292861
1611 15.418246
1611.5 15.288246
1612 15.373334
1612.5 15.455475
1613 15.305336
1613.5 15.484175
1614 15.374722
1614.5 15.525344
1615 15.424418
1615.5 15.605272
1616 15.549357
1616.5 15.515721
1617 15.659299
1617.5 15.499894
1618 15.60275
1618.5 15.430334
1619 15.606225
1619.5 15.382405
1620 15.618686
1620.5 15.464157
1621 15.566096
1621.5 15.522243
1622 15.479165
1622.5 15.647063
1623 15.540417
1623.5 15.662073
1624 15.541407
1624.5 15.738592
1625 15.681303
1625.5 15.762532
1626 15.570943
1626.5 15.715463
1627 15.667175
1627.5 15.58921
1628 15.712604
1628.5 15.606464
1629 15.772137
1629.5 15.591793
1630 15.733545
1630.5 15.60629
1631 15.758516
1631.5 15.697819
1632 15.735294
1632.5 15.71551
1633 15.613258
1633.5 15.790623
1634 15.691996
1634.5 15.853643
1635 15.656646
1635.5 15.905561
1636 15.814513
1636.5 15.926312
1637 15.893018
1637.5 16.019802
1638 15.996368
1638.5 15.966554
1639 15.809049
1639.5 15.777922
1640 15.954949
1640.5 15.818414
1641 15.915641
1641.5 15.816443
1642 15.89212
1642.5 15.922251
1643 15.947078
1643.5 15.949111
1644 15.759824
1644.5 16.053055
1645 15.773173
1645.5 16.023833
1646 15.888055
1646.5 16.099508
1647 15.928906
1647.5 16.115718
1648 16.091786
1648.5 15.986177
1649 16.125642
1649.5 15.950099
1650 16.179927
1650.5 16.076185
1651 16.248451
1651.5 16.17633
1652 16.257599
1652.5 16.142841
1653 15.973201
1653.5 16.138865
1654 15.972328
1654.5 16.194005
1655 15.992193
1655.5 16.232643
1656 15.968047
1656.5 16.198751
1657 16.068992
1657.5 16.166602
1658 16.158326
1658.5 16.100739
1659 16.254155
1659.5 16.208942
1660 16.325745
1660.5 16.156504
1661 16.374797
1661.5 16.284895
1662 16.270196
1662.5 16.182885
1663 16.261292
1663.5 16.264956
1664 16.204156
1664.5 16.33265
1665 16.145489
1665.5 16.401225
1666 16.216166
1666.5 16.308042
1667 16.21543
1667.5 16.260275
1668 16.343834
1668.5 16.328807
1669 16.25156
1669.5 16.073978
1670 16.289034
1670.5 16.416834
1671 16.549902
1671.5 16.320714
1672 16.364135
1672.5 16.18721
1673 16.441286
1673.5 16.366443
1674 16.513425
1674.5 16.381837
1675 16.539329
1675.5 16.478665
1676 16.507266
1676.5 16.393076
1677 16.436292
1677.5 16.530332
1678 16.429114
1678.5 16.558506
1679 16.434322
1679.5 16.597266
1680 16.483317
1680.5 16.616111
1681 16.602467
1681.5 16.539407
1682 16.711181
1682.5 16.608123
1683 16.575608
1683.5 16.347653
1684 16.632073
1684.5 16.43479
1685 16.633253
1685.5 16.515498
1686 16.659448
1686.5 16.666849
1687 16.713516
1687.5 16.737165
1688 16.556229
1688.5 16.712806
1689 16.534509
1689.5 16.747701
1690 16.584048
1690.5 16.705331
1691 16.65547
1691.5 16.763544
1692 16.760978
1692.5 16.638604
1693 16.820428
1693.5 16.663489
1694 16.901878
1694.5 16.671959
1695 16.856244
1695.5 16.608451
1696 16.829391
1696.5 16.750246
1697 16.771765
1697.5 16.757314
1698 16.67137
1698.5 16.872407
1699 16.777821
1699.5 16.979501
1700 16.757281
1700.5 16.951227
1701 16.956171
1701.5 16.983598
1702 16.980189
1702.5 16.900647
1703 16.981165
1703.5 16.819353
1704 17.049026
1704.5 16.786355
1705 17.016092
1705.5 16.817306
1706 16.995686
1706.5 16.867079
1707 16.888855
1707.5 16.944166
1708 16.920814
1708.5 17.020126
1709 16.809784
1709.5 17.140856
1710 17.016792
1710.5 17.126714
1711 17.121047
1711.5 17.183715
1712 17.126679
1712.5 17.12534
1713 17.119676
1713.5 17.061284
1714 17.21864
1714.5 17.085448
1715 17.196342
1715.5 17.06195
1716 17.19081
1716.5 17.193259
1717 17.232506
1717.5 17.143537
1718 17.230825
1718.5 17.375109
1719 17.200184
1719.5 17.256874
1720 17.079219
1720.5 17.316787
1721 17.061566
1721.5 17.348756
1722 17.167915
1722.5 17.251222
1723 17.260024
1723.5 17.270017
1724 17.370129
1724.5 17.237876
1725 17.411792
1725.5 17.185688
1726 17.409796
1726.5 17.275025
1727 17.431149
1727.5 17.345276
1728 17.354824
1728.5 17.431276
1729 17.281611
1729.5 17.447512
1730 17.253156
1730.5 17.4729
1731 17.215879
1731.5 17.524607
1732 17.316441
1732.5 17.458563
1733 17.447425
1733.5 17.47565
1734 17.490463
1734.5 17.345735
1735 17.527379
1735.5 17.469266
1736 17.602836
1736.5 17.404024
1737 17.660724
1737.5 17.550799
1738 17.537667
1738.5 17.637099
1739 17.523207
1739.5 17.682493
1740 17.51948
1740.5 17.761119
1741 17.519188
1741.5 17.819764
1742 17.639266
1742.5 17.631134
1743 17.546727
1743.5 17.513147
1744 17.655541
1744.5 17.597766
1745 17.6533
1745.5 17.482996
1746 17.740875
1746.5 17.650644
1747 17.747076
1747.5 17.673443
1748 17.769744
1748.5 17.741589
1749 17.720348
1749.5 17.83262
1750 17.701174
1750.5 17.90529
1751 17.742504
1751.5 17.835887
1752 17.712124
1752.5 17.847167
1753 17.761673
1753.5 17.800996
1754 17.780733
1754.5 17.637753
1755 17.905121
1755.5 17.794307
1756 17.957442
1756.5 17.667495
1757 17.999488
1757.5 17.814295
1758 17.988501
1758.5 17.878152
1759 17.971863
1759.5 17.946286
1760 17.940822
1760.5 18.082719
1761 17.964247
1761.5 18.163601
1762 18.035217
1762.5 18.132794
1763 17.922705
1763.5 17.986616
1764 18.037423
1764.5 18.030219
1765 18.112141
1765.5 17.904419
1766 18.146931
1766.5 17.896175
1767 18.09205
1767.5 17.935212
1768 18.137223
1768.5 18.067694
1769 18.123628
1769.5 18.144318
1770 18.131877
1770.5 18.250868
1771 18.090469
1771.5 18.303174
1772 18.086466
1772.5 18.23919
1773 18.085212
1773.5 18.209787
1774 18.146321
1774.5 18.129307
1775 18.261985
1775.5 18.092182
1776 18.25202
1776.5 18.081272
1777 18.300623
1777.5 18.115115
1778 18.322943
1778.5 18.250243
1779 18.306868
1779.5 18.242887
1780 18.283659
1780.5 18.397528
1781 18.310095
1781.5 18.486787
1782 18.212183
1782.5 18.470876
1783 18.306811
1783.5 18.464552
1784 18.355912
1784.5 18.410558
1785 18.485492
1785.5 18.434016
1786 18.510702
1786.5 18.347068
1787 18.572371
1787.5 18.419546
1788 18.562481
1788.5 18.36419
1789 18.476982
1789.5 18.403746
1790 18.523982
1790.5 18.525364
1791 18.352303
1791.5 18.673958
1792 18.502498
1792.5 18.638998
1793 18.422787
1793.5 18.576843
1794 18.587074
1794.5 18.703052
1795 18.661262
1795.5 18.684022
1796 18.739648
1796.5 18.623516
1797 18.707517
1797.5 18.524714
1798 18.680069
1798.5 18.557084
1799 18.698397
1799.5 18.597697
1800 18.648216
1800.5 18.800993
1801 18.768717
1801.5 18.781751
1802 18.65596
1802.5 18.887509
1803 18.586954
1803.5 18.874872
1804 18.701977
1804.5 18.778574
1805 18.742013
1805.5 18.846248
1806 18.895011
1806.5 18.817173
1807 18.901649
1807.5 18.691532
1808 18.948172
1808.5 18.66996
1809 18.842219
1809.5 18.756489
1810 18.86645
1810.5 18.920116
1811 18.880743
1811.5 18.982127
1812 18.907379
1812.5 19.124557
1813 18.778576
1813.5 18.924104
1814 18.716268
1814.5 19.006632
1815 19.00097
1815.5 19.195703
1816 19.088255
1816.5 18.903975
1817 19.028488
1817.5 18.872483
1818 19.069876
1818.5 18.819302
1819 18.939601
1819.5 18.789594
1820 19.071326
1820.5 19.105531
1821 19.127044
1821.5 19.216141
1822 19.187376
1822.5 19.401826
1823 19.136603
1823.5 19.254157
1824 19.028741
1824.5 19.117692
1825 18.955828
1825.5 19.131923
1826 19.329892
1826.5 19.403861
1827 19.246393
1827.5 18.973465
1828 19.194101
1828.5 19.104454
1829 19.190268
1829.5 18.985008
1830 19.25509
1830.5 19.160883
1831 19.438392
1831.5 19.397506
1832 19.363891
1832.5 19.512728
1833 19.329041
1833.5 19.320308
1834 19.117782
1834.5 19.335334
1835 19.110128
1835.5 19.353363
1836 19.346222
1836.5 19.274713
1837 19.534612
1837.5 19.454041
1838 19.516486
1838.5 19.156516
1839 19.357158
1839.5 19.252619
1840 19.439432
1840.5 19.253175
1841 19.481471
1841.5 19.480993
1842 19.635409
1842.5 19.746032
1843 19.623336
1843.5 19.697542
1844 19.479026
1844.5 19.668408
1845 19.361444
1845.5 19.477808
1846 19.279619
1846.5 19.368289
1847 19.627783
1847.5 19.563411
1848 19.899121
1848.5 19.558178
1849 19.888891
1849.5 19.561306
1850 19.736883
1850.5 19.499953
1851 19.652011
1851.5 19.617873
1852 19.47037
1852.5 19.554877
1853 19.572802
1853.5 19.936062
1854 19.792452
1854.5 19.801995
1855 19.500893
1855.5 19.688694
1856 19.704857
1856.5 19.862673
1857 19.962436
1857.5 19.76406
1858 19.784446
1858.5 19.502306
1859 19.714746
1859.5 19.763866
1860 20.011812
1860.5 19.897909
1861 19.985987
1861.5 19.810769
1862 19.737808
1862.5 19.80339
1863 19.794863
1863.5 19.957918
1864 19.859652
1864.5 20.177963
1865 20.058073
1865.5 19.987938
1866 19.662631
1866.5 19.871283
1867 19.786836
1867.5 19.903162
1868 20.176728
1868.5 20.072617
1869 20.03625
1869.5 19.902587
1870 19.918297
1870.5 19.986394
1871 20.089406
1871.5 19.873939
1872 19.953492
1872.5 19.953834
1873 20.0376
1873.5 20.309699
1874 20.243604
1874.5 20.130871
1875 19.793347
1875.5 20.027761
1876 19.935034
1876.5 20.24374
1877 20.247659
1877.5 20.361684
1878 20.364775
1878.5 20.212653
1879 20.193416
1879.5 20.083119
1880 20.270878
1880.5 20.093217
1881 20.284408
1881.5 20.12416
1882 20.175654
1882.5 20.043422
1883 20.185088
1883.5 20.278388
1884 20.24354
1884.5 20.408233
1885 20.205532
1885.5 20.390902
1886 20.208526
1886.5 20.444724
1887 20.352323
1887.5 20.423554
1888 20.245147
1888.5 20.208627
1889 20.19977
1889.5 20.152628
1890 20.483671
1890.5 20.404023
1891 20.540924
1891.5 20.361738
1892 20.635401
1892.5 20.500478
1893 20.548646
1893.5 20.614713
1894 20.5348
1894.5 20.574038
1895 20.406155
1895.5 20.61336
1896 20.36124
1896.5 20.513003
1897 20.312408
1897.5 20.464702
1898 20.311555
1898.5 20.382543
1899 20.650432
1899.5 20.613098
1900 20.785189
1900.5 20.475915
1901 20.689961
1901.5 20.498919
1902 20.617823
1902.5 20.460021
1903 20.665826
1903.5 20.546988
1904 20.514125
1904.5 20.491512
1905 20.553002
1905.5 20.771773
1906 20.738004
1906.5 21.054271
1907 20.747274
1907.5 20.872997
1908 20.685878
1908.5 20.747812
1909 20.702882
1909.5 20.596215
1910 20.797364
1910.5 20.648591
1911 20.781477
1911.5 20.534316
1912 20.699674
1912.5 20.556584
1913 20.878355
1913.5 20.815492
1914 20.998341
1914.5 20.939408
1915 20.885517
1915.5 20.989925
1916 20.890602
1916.5 21.114515
1917 20.837644
1917.5 20.978341
1918 20.739077
1918.5 20.831178
1919 20.73441
1919.5 20.801984
1920 21.110445
1920.5 21.015045
1921 21.190108
1921.5 20.893708
1922 21.070527
1922.5 20.785584
1923 20.963512
1923.5 20.865487
1924 21.135063
1924.5 20.919673
1925 20.859855
1925.5 20.949882
1926 20.844597
1926.5 21.122308
1927 21.046135
1927.5 21.159883
1928 20.980965
1928.5 21.172144
1929 21.142279
1929.5 21.134639
1930 21.229325
1930.5 21.153203
1931 21.295573
1931.5 21.086651
1932 21.271597
1932.5 21.055806
1933 21.189003
1933.5 21.15974
1934 21.225317
1934.5 21.219248
1935 21.123697
1935.5 21.27489
1936 21.161456
1936.5 21.325742
1937 21.117994
1937.5 21.32856
1938 21.184041
1938.5 21.318759
1939 21.181303
1939.5 21.354367
1940 21.324141
1940.5 21.307938
1941 21.416621
1941.5 21.227446
1942 21.443033
1942.5 21.309966
1943 21.452002
1943.5 21.322992
1944 21.398528
1944.5 21.384813
1945 21.38719
1945.5 21.424481
1946 21.283071
1946.5 21.489744
1947 21.317089
1947.5 21.488383
1948 21.281068
1948.5 21.518421
1949 21.395972
1949.5 21.53683
1950 21.484971
1950.5 21.479376
1951 21.554802
1951.5 21.529002
1952 21.583582
1952.5 21.406896
1953 21.651456
1953.5 21.426877
1954 21.676934
1954.5 21.539868
1955 21.569276
1955.5 21.611178
1956 21.587983
1956.5 21.679471
1957 21.432206
1957.5 21.662298
1958 21.447353
1958.5 21.680447
1959 21.470147
1959.5 21.689345
1960 21.589978
1960.5 21.650478
1961 21.677583
1961.5 21.573317
1962 21.781415
1962.5 21.530664
1963 21.7888
1963.5 21.708772
1964 21.814792
1964.5 21.682504
1965 21.809359
1965.5 21.785964
1966 21.759188
1966.5 21.849723
1967 21.673767
1967.5 21.923789
1968 21.689214
1968.5 21.900168
1969 21.693508
1969.5 21.851043
1970 21.763209
1970.5 21.931766
1971 21.826659
1971.5 21.730995
1972 21.915662
1972.5 21.798784
1973 21.958797
1973.5 21.792318
1974 21.977994
1974.5 21.85888
1975 22.024666
1975.5 21.898526
1976 21.961944
1976.5 21.906845
1977 21.95182
1977.5 22.112769
1978 21.848279
1978.5 22.120996
1979 21.950176
1979.5 22.083466
1980 21.950623
1980.5 22.01242
1981 22.019625
1981.5 22.067727
1982 22.044471
1982.5 21.931532
1983 22.11141
1983.5 21.974902
1984 22.148964
1984.5 21.872878
1985 22.194488
1985.5 22.040676
1986 22.205369
1986.5 22.165568
1987 22.11563
1987.5 22.23808
1988 22.152501
1988.5 22.329731
1989 22.128075
1989.5 22.374937
1990 22.172533
1990.5 22.247629
1991 22.214696
1991.5 22.215697
1992 22.336751
1992.5 22.261843
1993 22.404365
1993.5 22.109498
1994 22.389023
1994.5 22.17263
1995 22.419634
1995.5 22.243781
1996 22.37636
1996.5 22.241507
1997 22.348024
1997.5 22.382216
1998 22.297172
1998.5 22.490996
1999 22.236188
1999.5 22.53644
2000 22.367178
2000.5 22.441331
2001 22.447787
2001.5 22.473638
2002 22.414577
2002.5 22.350189
2003 22.628129
2003.5 22.297241
2004 22.572576
2004.5 22.299361
2005 22.595325
2005.5 22.447191
2006 22.55294
2006.5 22.44691
2007 22.514272
2007.5 22.572815
2008 22.389765
2008.5 22.703879
2009 22.545791
2009.5 22.735748
2010 22.57469
2010.5 22.793473
2011 22.662948
2011.5 22.607972
2012 22.620705
2012.5 22.556317
2013 22.741361
2013.5 22.597237
2014 22.718008
2014.5 22.549649
2015 22.766493
2015.5 22.597978
2016 22.734587
2016.5 22.626811
2017 22.63954
2017.5 22.829859
2018 22.760585
2018.5 22.825812
2019 22.548385
2019.5 22.807069
2020 22.684084
2020.5 22.837517
2021 22.662115
2021.5 22.873411
2022 22.724256
2022.5 22.856921
2023 22.861163
2023.5 22.755603
2024 22.909103
2024.5 22.755951
2025 23.034696
2025.5 22.83681
2026 23.033738
2026.5 22.888064
2027 22.925672
2027.5 22.858763
2028 22.762524
2028.5 22.925524
2029 22.899763
2029.5 23.047577
2030 22.802764
2030.5 23.07467
2031 22.932401
2031.5 23.130807
2032 22.91254
2032.5 22.976406
2033 22.995503
2033.5 23.030956
2034 23.031443
2034.5 23.023413
2035 23.180372
2035.5 23.05878
2036 23.16927
2036.5 23.008077
2037 23.050672
2037.5 23.149146
2038 23.124258
2038.5 23.152973
2039 23.048034
2039.5 23.250265
2040 23.048677
2040.5 23.365559
2041 23.125921
2041.5 23.14654
2042 23.053731
2042.5 23.200515
2043 23.222806
2043.5 23.107105
2044 23.264991
2044.5 23.097877
2045 23.337062
2045.5 23.239611
2046 23.411521
2046.5 23.310462
2047 23.394305
2047.5 23.255508
2048 23.251513
2048.5 23.380794
2049 23.197706
2049.5 23.50893
2050 23.29907
2050.5 23.5567
2051 23.295605
2051.5 23.480086
2052 23.248762
2052.5 23.443481
2053 23.346595
2053.5 23.349686
2054 23.469105
2054.5 23.410092
2055 23.590767
2055.5 23.384534
2056 23.521255
2056.5 23.358031
2057 23.561919
2057.5 23.393133
2058 23.55179
2058.5 23.511812
2059 23.497485
2059.5 23.760985
2060 23.555678
2060.5 23.622318
2061 23.459004
2061.5 23.584192
2062 23.480305
2062.5 23.611589
2063 23.612247
2063.5 23.624583
2064 23.687679
2064.5 23.553137
2065 23.78355
2065.5 23.475905
2066 23.674251
2066.5 23.49548
2067 23.763449
2067.5 23.609985
2068 23.794279
2068.5 23.737879
2069 23.677731
2069.5 23.754936
2070 23.641396
2070.5 23.869061
2071 23.74302
2071.5 23.897088
2072 23.741631
2072.5 23.942451
2073 23.795576
2073.5 23.844534
2074 23.865712
2074.5 23.822193
2075 23.903535
2075.5 23.718457
2076 24.025024
2076.5 23.764293
2077 23.911938
2077.5 23.732482
2078 23.889652
2078.5 23.80465
2079 23.885535
2079.5 23.925851
2080 23.834847
2080.5 23.950015
2081 23.851018
2081.5 24.108905
2082 23.947841
2082.5 24.177977
2083 23.935983
2083.5 24.044754
2084 23.950419
2084.5 23.922521
2085 24.071489
2085.5 23.938131
2086 24.205539
2086.5 23.995888
2087 24.065512
2087.5 23.848377
2088 24.109836
2088.5 24.04262
2089 24.071874
2089.5 24.136709
2090 24.02461
2090.5 24.275443
2091 24.125233
2091.5 24.198551
2092 24.008909
2092.5 24.278751
2093 24.117462
2093.5 24.229243
2094 24.202356
2094.5 24.316704
2095 24.340846
2095.5 24.176671
2096 24.329402
2096.5 24.157172
2097 24.381134
2097.5 24.211676
2098 24.415289
2098.5 24.221514
2099 24.300866
2099.5 24.311015
2100 24.260992
2100.5 24.330039
2101 24.092549
2101.5 24.445005
2102 24.306975
2102.5 24.444006
2103 24.297543
2103.5 24.442308
2104 24.319844
2104.5 24.448061
2105 24.393746
2105.5 24.400637
2106 24.53101
2106.5 24.394707
2107 24.665841
2107.5 24.421488
2108 24.572539
2108.5 24.458717
2109 24.563466
2109.5 24.469101
2110 24.383669
2110.5 24.563701
2111 24.46768
2111.5 24.605836
2112 24.373072
2112.5 24.707566
2113 24.377549
2113.5 24.622269
2114 24.469353
2114.5 24.617876
2115 24.562965
2115.5 24.57386
2116 24.639933
2116.5 24.599861
2117 24.853648
2117.5 24.647245
2118 24.856061
2118.5 24.686684
2119 24.63529
2119.5 24.685302
2120 24.705149
2120.5 24.706334
2121 24.607648
2121.5 24.847022
2122 24.603039
2122.5 24.872157
2123 24.685992
2123.5 24.93147
2124 24.641907
2124.5 24.834399
2125 24.731988
2125.5 24.823686
2126 24.873772
2126.5 24.737042
2127 25.001928
2127.5 24.882089
2128 25.063339
2128.5 24.791744
2129 24.956872
2129.5 24.90031
2130 24.856888
2130.5 24.949202
2131 24.835557
2131.5 24.999247
2132 24.814928
2132.5 25.026616
2133 24.843273
2133.5 25.07942
2134 25.031769
2134.5 25.166124
2135 25.014213
2135.5 24.863414
2136 25.05073
2136.5 24.976407
2137 25.113928
2137.5 24.854884
2138 25.197396
2138.5 24.99437
2139 25.130501
2139.5 25.062093
2140 25.155437
2140.5 25.159186
2141 25.226536
2141.5 25.307027
2142 25.036928
2142.5 25.286213
2143 25.053543
2143.5 25.25022
2144 25.143862
2144.5 25.20704
2145 25.122091
2145.5 25.249934
2146 25.244108
2146.5 25.180465
2147 25.383177
2147.5 25.294769
2148 25.443742
2148.5 25.149751
2149 25.349024
2149.5 25.183064
2150 25.381526
2150.5 25.242954
2151 25.298411
2151.5 25.424582
2152 25.260857
2152.5 25.47251
2153 25.266695
2153.5 25.451654
2154 25.310701
2154.5 25.540584
2155 25.341475
2155.5 25.409356
2156 25.601074
2156.5 25.434446
2157 25.482252
2157.5 25.25433
2158 25.529918
2158.5 25.333136
2159 25.580478
2159.5 25.34743
2160 25.606003
2160.5 25.507602
2161 25.547993
2161.5 25.530931
2162 25.50022
2162.5 25.602052
2163 25.498691
2163.5 25.689492
2164 25.488946
2164.5 25.631294
2165 25.536439
2165.5 25.630429
2166 25.630787
2166.5 25.60569
2167 25.701761
2167.5 25.6134
2168 25.823385
2168.5 25.547516
2169 25.712433
2169.5 25.499794
2170 25.721577
2170.5 25.618237
2171 25.711688
2171.5 25.749582
2172 25.528926
2172.5 25.80412
2173 25.720948
2173.5 25.91534
2174 25.760794
2174.5 25.950226
2175 25.835267
2175.5 25.941736
2176 25.936022
2176.5 25.779301
2177 25.898454
2177.5 25.798374
2178 26.000017
2178.5 25.724226
2179 25.962105
2179.5 25.834328
2180 25.935426
2180.5 25.79594
2181 25.9045
2181.5 26.006651
2182 25.977397
2182.5 26.062995
2183 25.855765
2183.5 26.229605
2184 25.94234
2184.5 26.085487
2185 25.893098
2185.5 26.09767
2186 26.028731
2186.5 26.057023
2187 26.114759
2187.5 26.022875
2188 26.331809
2188.5 26.125425
2189 26.174173
2189.5 26.036701
2190 26.221859
2190.5 26.152265
2191 26.225752
2191.5 26.191241
2192 26.047155
2192.5 26.208699
2193 26.16092
2193.5 26.284048
2194 26.016378
2194.5 26.334673
2195 26.088259
2195.5 26.285952
2196 26.170674
2196.5 26.294026
2197 26.347166
2197.5 26.307386
2198 26.4348
2198.5 26.310858
2199 26.44648
2199.5 26.234761
2200 26.421064
2200.5 26.249591
2201 26.338637
2201.5 26.35459
2202 26.379529
2202.5 26.398498
2203 26.2638
2203.5 26.496223
2204 26.271933
2204.5 26.542366
2205 26.328787
2205.5 26.519462
2206 26.379317
2206.5 26.453581
2207 26.43472
2207.5 26.438975
2208 26.577032
2208.5 26.439703
2209 26.626867
2209.5 26.508594
2210 26.685226
2210.5 26.564145
2211 26.77677
2211.5 26.693755
2212 26.46828
2212.5 26.601949
2213 26.513734
2213.5 26.705241
2214 26.48252
2214.5 26.738295
2215 26.495281
2215.5 26.713863
2216 26.597366
2216.5 26.712912
2217 26.708344
2217.5 26.587293
2218 26.876807
2218.5 26.637489
2219 26.781234
2219.5 26.595244
2220 26.833087
2220.5 26.700568
2221 26.810095
2221.5 26.700583
2222 26.799768
2222.5 26.901037
2223 26.769066
2223.5 26.962906
2224 26.728314
2224.5 27.036479
2225 26.849014
2225.5 26.922718
2226 26.754567
2226.5 26.818684
2227 26.836163
2227.5 26.807854
2228 26.859078
2228.5 26.671159
2229 27.024582
2229.5 26.909927
2230 27.024454
2230.5 26.852086
2231 27.050424
2231.5 27.007332
2232 27.01236
2232.5 27.149159
2233 26.950109
2233.5 27.114177
2234 26.884401
2234.5 27.078632
2235 26.907352
2235.5 27.170771
2236 27.063483
2236.5 27.148172
2237 27.14496
2237.5 26.998222
2238 27.207851
2238.5 27.085927
2239 27.14023
2239.5 26.92703
2240 27.191418
2240.5 26.987821
2241 27.151135
2241.5 27.053842
2242 27.152449
2242.5 27.165186
2243 27.195048
2243.5 27.285492
2244 27.169782
2244.5 27.43108
2245 27.201334
2245.5 27.412254
2246 27.229184
2246.5 27.225691
2247 27.304387
2247.5 27.275646
2248 27.282947
2248.5 27.159318
2249 27.328107
2249.5 27.202657
2250 27.397871
2250.5 27.186984
2251 27.446455
2251.5 27.302992
2252 27.450866
2252.5 27.358457
2253 27.33376
2253.5 27.374014
2254 27.168685
2254.5 27.538875
2255 27.324012
2255.5 27.494785
2256 27.307463
2256.5 27.508813
2257 27.438167
2257.5 27.408832
2258 27.621591
2258.5 27.416417
2259 27.517778
2259.5 27.296317
2260 27.553165
2260.5 27.320299
2261 27.571154
2261.5 27.445614
2262 27.496549
2262.5 27.548802
2263 27.443412
2263.5 27.598944
2264 27.542987
2264.5 27.70074
2265 27.392283
2265.5 27.655026
2266 27.524167
2266.5 27.629659
2267 27.566651
2267.5 27.617776
2268 27.738342
2268.5 27.553004
2269 27.748576
2269.5 27.644306
2270 27.858022
2270.5 27.658546
2271 27.704674
2271.5 27.620751
2272 27.668121
2272.5 27.651656
2273 27.68029
2273.5 27.714494
2274 27.557555
2274.5 27.85297
2275 27.693483
2275.5 27.820057
2276 27.717203
2276.5 27.925351
2277 27.843204
2277.5 27.829835
2278 27.837294
2278.5 27.746215
2279 27.872095
2279.5 27.72505
2280 27.937052
2280.5 27.724016
2281 27.897483
2281.5 27.793217
2282 27.918401
2282.5 27.785006
2283 27.791116
2283.5 28.039807
2284 27.962962
2284.5 28.039986
2285 27.845922
2285.5 28.037167
2286 27.753213
2286.5 28.018406
2287 27.853003
2287.5 27.96523
2288 27.942485
2288.5 27.953023
2289 28.075889
2289.5 27.902585
2290 28.137752
2290.5 27.913234
2291 28.195935
2291.5 28.026891
2292 28.169724
2292.5 28.160974
2293 28.19846
2293.5 28.144342
2294 27.959207
2294.5 28.181341
2295 27.884054
2295.5 28.144509
2296 27.949691
2296.5 28.163892
2297 27.984691
2297.5 28.211004
2298 28.178751
2298.5 28.133199
2299 28.257689
2299.5 28.160128
2300 28.367901
2300.5 28.267103
2301 28.374541
2301.5 28.127971
2302 28.390169
2302.5 28.291836
2303 28.204259
2303.5 28.299889
2304 28.212118
2304.5 28.352329
2305 28.155956
2305.5 28.422162
2306 28.115278
2306.5 28.435758
2307 28.383353
2307.5 28.463107
2308 28.352049
2308.5 28.399763
2309 28.546757
2309.5 28.28674
2310 28.45633
2310.5 28.295198
2311 28.483778
2311.5 28.392717
2312 28.511822
2312.5 28.377697
2313 28.472063
2313.5 28.528148
2314 28.459397
2314.5 28.661934
2315 28.439283
2315.5 28.707153
2316 28.520158
2316.5 28.655118
2317 28.547862
2317.5 28.680444
2318 28.545079
2318.5 28.620973
2319 28.674474
2319.5 28.419673
2320 28.728208
2320.5 28.549734
2321 28.713229
2321.5 28.487065
2322 28.701615
2322.5 28.583848
2323 28.720239
2323.5 28.674406
2324 28.684291
2324.5 28.750512
2325 28.686601
2325.5 28.857973
2326 28.671834
2326.5 28.865176
2327 28.726223
2327.5 28.98927
2328 28.812736
2328.5 28.829584
2329 28.888315
2329.5 28.833047
2330 28.874683
2330.5 28.680924
2331 28.975466
2331.5 28.704426
2332 28.938988
2332.5 28.774518
2333 28.968823
2333.5 28.86959
2334 28.966555
2334.5 28.998476
2335 28.867036
2335.5 29.020217
2336 28.842086
2336.5 29.208511
2337 28.954065
2337.5 29.125959
2338 29.033116
2338.5 29.211494
2339 29.097933
2339.5 29.116887
2340 29.227093
2340.5 28.971633
2341 29.193264
2341.5 28.893089
2342 29.165441
2342.5 28.912792
2343 29.184806
2343.5 29.060274
2344 29.137021
2344.5 29.174545
2345 29.039103
2345.5 29.250994
2346 29.154417
2346.5 29.297939
2347 29.155394
2347.5 29.468018
2348 29.265559
2348.5 29.360646
2349 29.234606
2349.5 29.250017
2350 29.314098
2350.5 29.166517
2351 29.385695
2351.5 29.147503
2352 29.359877
2352.5 29.171717
2353 29.369846
2353.5 29.230022
2354 29.331064
2354.5 29.397389
2355 29.378468
2355.5 29.449904
2356 29.23902
2356.5 29.581529
2357 29.491597
2357.5 29.603341
2358 29.302108
2358.5 29.514506
2359 29.386225
2359.5 29.445028
2360 29.500628
2360.5 29.383242
2361 29.563642
2361.5 29.456022
2362 29.630059
2362.5 29.441592
2363 29.645044
2363.5 29.545054
2364 29.608774
2364.5 29.580384
2365 29.532138
2365.5 29.743454
2366 29.605484
2366.5 29.654002
2367 29.374468
2367.5 29.718032
2368 29.486686
2368.5 29.668757
2369 29.58551
2369.5 29.663005
2370 29.690418
2370.5 29.714614
2371 29.762027
2371.5 29.626501
2372 29.877007
2372.5 29.605576
2373 29.902306
2373.5 29.716882
2374 29.851779
2374.5 29.893449
2375 29.896864
2375.5 29.836071
2376 29.650152
2376.5 29.901403
2377 29.653785
2377.5 29.887122
2378 29.661113
2378.5 29.899278
2379 29.790103
2379.5 29.906067
2380 29.928252
2380.5 29.888767
2381 30.026412
2381.5 29.883239
2382 30.057073
2382.5 29.847077
2383 30.060679
2383.5 29.879606
2384 30.042261
2384.5 29.999188
2385 29.913035
2385.5 30.013868
2386 29.931563
2386.5 30.181929
2387 29.928726
2387.5 30.17332
2388 29.904842
2388.5 30.175775
2389 30.032012
2389.5 30.066034
2390 30.046299
2390.5 29.989767
2391 30.142701
2391.5 30.022806
2392 30.181807
2392.5 30.021846
2393 30.26422
2393.5 30.134749
2394 30.299821
2394.5 30.198708
2395 30.275339
2395.5 30.269185
2396 30.121574
2396.5 30.335888
2397 30.075857
2397.5 30.339345
2398 30.170244
2398.5 30.347809
2399 30.157247
2399.5 30.314532
2400 30.317608
2400.5 30.369213
2401 30.410644
2401.5 30.164656
2402 30.474475
2402.5 30.220437
2403 30.405664
2403.5 30.221623
2404 30.434754
2404.5 30.306253
2405 30.46768
2405.5 30.407506
2406 30.357337
2406.5 30.525616
2407 30.44489
2407.5 30.615866
2408 30.430129
2408.5 30.600554
2409 30.373177
2409.5 30.526477
2410 30.407265
2410.5 30.404055
2411 30.596039
2411.5 30.564135
2412 30.553401
2412.5 30.292419
2413 30.666345
2413.5 30.499545
2414 30.726546
2414.5 30.499473
2415 30.636826
2415.5 30.64537
2416 30.647224
2416.5 30.675986
2417 30.545509
2417.5 30.78568
2418 30.59364
2418.5 30.827948
2419 30.604446
2419.5 30.715644
2420 30.68127
2420.5 30.747062
2421 30.747017
2421.5 30.616683
2422 30.912888
2422.5 30.71242
2423 30.894327
2423.5 30.595219
2424 30.825743
2424.5 30.604371
2425 30.828759
2425.5 30.834663
2426 30.825225
2426.5 30.875275
2427 30.72809
2427.5 31.03357
2428 30.832681
2428.5 31.088859
2429 30.823344
2429.5 30.932745
2430 30.844152
2430.5 30.896884
2431 30.930007
2431.5 30.927575
2432 31.055802
2432.5 30.788696
2433 31.053478
2433.5 30.755582
2434 31.023207
2434.5 30.907041
2435 30.993822
2435.5 30.971667
2436 31.030592
2436.5 31.128287
2437 31.019422
2437.5 31.111771
2438 30.955219
2438.5 31.304321
2439 31.066367
2439.5 31.191507
2440 31.003413
2440.5 31.215101
2441 31.134135
2441.5 31.034026
2442 31.25183
2442.5 31.011033
2443 31.296965
2443.5 31.066811
2444 31.259847
2444.5 31.002605
2445 31.20954
2445.5 31.181049
2446 31.169927
2446.5 31.205964
2447 31.011528
2447.5 31.374803
2448 31.224978
2448.5 31.349146
2449 31.11777
2449.5 31.29068
2450 31.19742
2450.5 31.339523
2451 31.325203
2451.5 31.270868
2452 31.483647
2452.5 31.314668
2453 31.454819
2453.5 31.313294
2454 31.488183
2454.5 31.22479
2455 31.371203
2455.5 31.308246
2456 31.228724
2456.5 31.420892
2457 31.373793
2457.5 31.440753
2458 31.207225
2458.5 31.518161
2459 31.288561
2459.5 31.579897
2460 31.417647
2460.5 31.46084
2461 31.450924
2461.5 31.466433
2462 31.565446
2462.5 31.475878
2463 31.600818
2463.5 31.423426
2464 31.659672
2464.5 31.507385
2465 31.601116
2465.5 31.526002
2466 31.636208
2466.5 31.584004
2467 31.554794
2467.5 31.750551
2468 31.48818
2468.5 31.600818
2469 31.327564
2469.5 31.624895
2470 31.473964
2470.5 31.762254
2471 31.663907
2471.5 31.670699
2472 31.786609
2472.5 31.730732
2473 31.868607
2473.5 31.755894
2474 31.93202
2474.5 31.663194
2475 31.906256
2475.5 31.830937
2476 31.871542
2476.5 31.909561
2477 31.886557
2477.5 31.918332
2478 31.6764
2478.5 31.906053
2479 31.603649
2479.5 31.904569
2480 31.800738
2480.5 31.98674
2481 31.83732
2481.5 31.799573
2482 31.926978
2482.5 31.85969
2483 31.933609
2483.5 31.787726
2484 32.049739
2484.5 31.957239
2485 32.079378
2485.5 31.943715
2486 32.123384
2486.5 32.151717
2487 32.058656
2487.5 32.184765
2488 31.934792
2488.5 32.212713
2489 31.928065
2489.5 32.125491
2490 31.905961
2490.5 32.074642
2491 31.977856
2491.5 32.070369
2492 32.039467
2492.5 31.908289
2493 32.242998
2493.5 32.077771
2494 32.30387
2494.5 32.074183
2495 32.400656
2495.5 32.247126
2496 32.305914
2496.5 32.212883
2497 32.267535
2497.5 32.376242
2498 32.265905
2498.5 32.424325
2499 32.230955
2499.5 32.358855
2500 32.218784
2500.5 32.322523
2501 32.117119
2501.5 32.199642
2502 32.310054
2502.5 32.327345
2503 32.359344
2503.5 32.111958
2504 32.458785
2504.5 32.252911
2505 32.485649
2505.5 32.308561
2506 32.524753
2506.5 32.394642
2507 32.486856
2507.5 32.554656
2508 32.430467
2508.5 32.559916
2509 32.435167
2509.5 32.743818
2510 32.410926
2510.5 32.584962
2511 32.463598
2511.5 32.539934
2512 32.555172
2512.5 32.467076
2513 32.673728
2513.5 32.425213
2514 32.588196
2514.5 32.320622
2515 32.645437
2515.5 32.441387
2516 32.6805
2516.5 32.620889
2517 32.697242
2517.5 32.661295
2518 32.566443
2518.5 32.790765
2519 32.610554
2519.5 32.808909
2520 32.503113
2520.5 32.798621
2521 32.622674
2521.5 32.741788
2522 32.786337
2522.5 32.732022
2523 32.783562
2523.5 32.627299
2524 32.82932
2524.5 32.604867
2525 32.916167
2525.5 32.664591
2526 32.882813
2526.5 32.780775
2527 32.824615
2527.5 32.902244
2528 32.770225
2528.5 32.856691
2529 32.614765
2529.5 32.905653
2530 32.709596
2530.5 32.83655
2531 32.745206
2531.5 32.927433
2532 32.895055
2532.5 32.956672
2533 33.008549
2533.5 32.83259
2534 33.149174
2534.5 32.942307
2535 33.131799
2535.5 32.887807
2536 33.154294
2536.5 33.086336
2537 33.099172
2537.5 33.093685
2538 32.972798
2538.5 33.112416
2539 33.040842
2539.5 33.122501
2540 32.91117
2540.5 33.138457
2541 33.0176
2541.5 33.092216
2542 33.032727
2542.5 33.104086
2543 33.15523
2543.5 33.13055
2544 33.303735
2544.5 33.131281
2545 33.346549
2545.5 33.116135
2546 33.282098
2546.5 33.094534
2547 33.169132
2547.5 33.193576
2548 33.197582
2548.5 33.183888
2549 32.947406
2549.5 33.251986
2550 33.101067
2550.5 33.343819
2551 33.181351
2551.5 33.404863
2552 33.268833
2552.5 33.397803
2553 33.420771
2553.5 33.419368
2554 33.603635
2554.5 33.443132
2555 33.809799
2555.5 33.333907
2556 33.503813
2556.5 33.375189
2557 33.570099
2557.5 33.505321
2558 33.378053
2558.5 33.30096
2559 33.378583
2559.5 33.429745
2560 33.035234
2560.5 33.400369
2561 33.204284
2561.5 33.432347
2562 33.375928
2562.5 33.46737
2563 33.451492
2563.5 33.348018
2564 33.626232
2564.5 33.487523
2565 33.762482
2565.5 33.455324
2566 33.847091
2566.5 33.533034
2567 33.63851
2567.5 33.630261
2568 33.680704
2568.5 33.627951
2569 33.442762
2569.5 33.691773
2570 33.423612
2570.5 33.740538
2571 33.465248
2571.5 33.674273
2572 33.447376
2572.5 33.59839
2573 33.68623
2573.5 33.77046
2574 33.742279
2574.5 33.54198
2575 33.859384
2575.5 33.741876
2576 33.984137
2576.5 33.755776
2577 34.090117
2577.5 33.841878
2578 33.810148
2578.5 33.833551
2579 33.755019
2579.5 33.967611
2580 33.653286
2580.5 33.941013
2581 33.787826
2581.5 33.885443
2582 33.664927
2582.5 33.805087
2583 33.636904
2583.5 33.655217
2584 33.967766
2584.5 33.860984
2585 33.97525
2585.5 33.748201
2586 34.059069
2586.5 33.922482
2587 34.093985
2587.5 34.091279
2588 34.145921
2588.5 34.067589
2589 33.921805
2589.5 33.984396
2590 33.842298
2590.5 34.073031
2591 33.869624
2591.5 34.133166
2592 33.970606
2592.5 33.935359
2593 33.992338
2593.5 34.077358
2594 34.09403
2594.5 33.916011
2595 34.080043
2595.5 33.97097
2596 34.086323
2596.5 34.001276
2597 34.259203
2597.5 34.28933
2598 34.407911
2598.5 34.252661
2599 34.239814
2599.5 34.319881
2600 34.077668
2600.5 34.339768
2601 34.228736
2601.5 34.306657
2602 34.146255
2602.5 34.272468
2603 34.131035
2603.5 34.042212
2604 34.227282
2604.5 34.094971
2605 34.287125
2605.5 34.000564
2606 34.365827
2606.5 34.092808
2607 34.377962
2607.5 34.206378
2608 34.452236
2608.5 34.438661
2609 34.343097
2609.5 34.631231
2610 34.570903
2610.5 34.6118
2611 34.355065
2611.5 34.570974
2612 34.45155
2612.5 34.49527
2613 34.374911
2613.5 34.529972
2614 34.534943
2614.5 34.297621
2615 34.414721
2615.5 34.186438
2616 34.443614
2616.5 34.478518
2617 34.676954
2617.5 34.411657
2618 34.556428
2618.5 34.479317
2619 34.541452
2619.5 34.696969
2620 34.4136
2620.5 34.657118
2621 34.693933
2621.5 34.618282
2622 34.930941
2622.5 34.552792
2623 34.809628
2623.5 34.687835
2624 34.779215
2624.5 34.852472
2625 34.645471
2625.5 34.786576
2626 34.563714
2626.5 34.749678
2627 34.461588
2627.5 34.73331
2628 34.424695
2628.5 34.57408
2629 34.511015
2629.5 34.713066
2630 34.773728
2630.5 34.632429
2631 34.782282
2631.5 34.567186
2632 34.80987
2632.5 34.64914
2633 34.839445
2633.5 34.872812
2634 35.126385
2634.5 35.080338
2635 34.943247
2635.5 35.112065
2636 35.042322
2636.5 35.21494
2637 34.962672
2637.5 35.164002
2638 34.834573
2638.5 35.056573
2639 34.9525
2639.5 35.046449
2640 35.072681
2640.5 34.802139
2641 34.982088
2641.5 34.915373
2642 35.114613
2642.5 34.861326
2643 35.222885
2643.5 35.118124
2644 35.179275
2644.5 35.201445
2645 35.210317
2645.5 35.360992
2646 35.195413
2646.5 35.422122
2647 35.249609
2647.5 35.331219
2648 35.066986
2648.5 35.280916
2649 35.15946
2649.5 35.213959
2650 35.279095
2650.5 35.205233
2651 35.298371
2651.5 35.069126
2652 35.259429
2652.5 35.146654
2653 35.33347
2653.5 35.216632
2654 35.422984
2654.5 35.326678
2655 35.394067
2655.5 35.468543
2656 35.343122
2656.5 35.483766
2657 35.338697
2657.5 35.528171
2658 35.312134
2658.5 35.470462
2659 35.452032
2659.5 35.524628
2660 35.442302
2660.5 35.379168
2661 35.436332
2661.5 35.380122
2662 35.46648
2662.5 35.14185
2663 35.392198
2663.5 35.276142
2664 35.464695
2664.5 35.256982
2665 35.375366
2665.5 35.400993
2666 35.278451
2666.5 35.408884
2667 35.25089
2667.5 35.549867
2668 35.21173
2668.5 35.373518
2669 35.29655
2669.5 35.421854
2670 35.489669
2670.5 35.48249
2671 35.562271
2671.5 35.308835
2672 35.510859
2672.5 35.277599
2673 35.519993
2673.5 35.241079
2674 35.519421
2674.5 35.412243
2675 35.613701
2675.5 35.605851
2676 35.557064
2676.5 35.688135
2677 35.388604
2677.5 35.653645
2678 35.454491
2678.5 35.676813
2679 35.495377
2679.5 35.681084
2680 35.580459
2680.5 35.656711
2681 35.776183
2681.5 35.717088
2682 35.842988
2682.5 35.673198
2683 35.923553
2683.5 35.629338
2684 35.910329
2684.5 35.729745
2685 35.842928
2685.5 35.757488
2686 35.786313
2686.5 35.971189
2687 35.918951
2687.5 36.067334
2688 35.817933
2688.5 36.048773
2689 35.879621
2689.5 35.979936
2690 35.839745
2690.5 35.918632
2691 35.982057
2691.5 35.918751
2692 36.052087
2692.5 35.778344
2693 35.987523
2693.5 35.936406
2694 36.03023
2694.5 35.859624
2695 35.927227
2695.5 35.917807
2696 35.923871
2696.5 35.938704
2697 35.78603
2697.5 36.121354
2698 35.917091
2698.5 36.27955
2699 35.991275
2699.5 36.361226
2700 36.161989
2700.5 36.292765
2701 36.302012
2701.5 36.218148
2702 36.291796
2702.5 36.16797
2703 36.341044
2703.5 36.061388
2704 36.295909
2704.5 36.056787
2705 36.280507
2705.5 36.213762
2706 36.152178
2706.5 36.22545
2707 36.194563
2707.5 36.28332
2708 35.937238
2708.5 36.179975
2709 36.077815
2709.5 36.275357
2710 36.180207
2710.5 36.268568
2711 36.252257
2711.5 36.212969
2712 36.374959
2712.5 36.187485
2713 36.532447
2713.5 36.291063
2714 36.453912
2714.5 36.251035
2715 36.430404
2715.5 36.315644
2716 36.518449
2716.5 36.471543
2717 36.248469
2717.5 36.423075
2718 36.248589
2718.5 36.28715
2719 36.039349
2719.5 36.304331
2720 36.136058
2720.5 36.363754
2721 36.218098
2721.5 36.247581
2722 36.210006
2722.5 36.062926
2723 36.366862
2723.5 36.202988
2724 36.374363
2724.5 36.227471
2725 36.529475
2725.5 36.425385
2726 36.558002
2726.5 36.547989
2727 36.413965
2727.5 36.678177
2728 36.59682
2728.5 36.863664
2729 36.554891
2729.5 36.760947
2730 36.53501
2730.5 36.723384
2731 36.580196
2731.5 36.608139
2732 36.736092
2732.5 36.580861
2733 36.702558
2733.5 36.400613
2734 36.731091
2734.5 36.521947
2735 36.698806
2735.5 36.505947
2736 36.701861
2736.5 36.612132
2737 36.525398
2737.5 36.650115
2738 36.463371
2738.5 36.638942
2739 36.42737
2739.5 36.632657
2740 36.46608
2740.5 36.561346
2741 36.544263
2741.5 36.51216
2742 36.52913
2742.5 36.372024
2743 36.64901
2743.5 36.614159
2744 36.737165
2744.5 36.632061
2745 36.990833
2745.5 36.861253
2746 37.058863
2746.5 36.855799
2747 36.849466
2747.5 36.93262
2748 36.81573
2748.5 36.972365
2749 36.776856
2749.5 36.969998
2750 36.787733
2750.5 36.996576
2751 36.828813
2751.5 36.913052
2752 36.982641
2752.5 36.895382
2753 36.938903
2753.5 36.716792
2754 37.009841
2754.5 36.610901
2755 36.862698
2755.5 36.615244
2756 36.799526
2756.5 36.660591
2757 36.810738
2757.5 36.825255
2758 36.79556
2758.5 36.835247
2759 36.707997
2759.5 37.063411
2760 36.818051
2760.5 37.025481
2761 36.929595
2761.5 37.096027
2762 37.022093
2762.5 36.91726
2763 36.999547
2763.5 36.774075
2764 36.972091
2764.5 36.611363
2765 36.947462
2765.5 36.740261
2766 37.037659
2766.5 36.861092
2767 36.955625
2767.5 37.067297
2768 36.86206
2768.5 37.192425
2769 37.005755
2769.5 37.229836
2770 37.032956
2770.5 37.306431
2771 37.140226
2771.5 37.209424
2772 37.246397
2772.5 37.240353
2773 37.35781
2773.5 37.07414
2774 37.335822
2774.5 37.06446
2775 37.33713
2775.5 37.073049
2776 37.294364
2776.5 37.109318
2777 37.231144
2777.5 37.298381
2778 37.251869
2778.5 37.329593
2779 37.031946
2779.5 37.315476
2780 37.192237
2780.5 37.29887
2781 37.068677
2781.5 37.256509
2782 37.205017
2782.5 37.216222
2783 37.252626
2783.5 37.1952
2784 37.449121
2784.5 37.186819
2785 37.371713
2785.5 37.204728
2786 37.351295
2786.5 37.275296
2787 37.374768
2787.5 37.371442
2788 37.24162
2788.5 37.538838
2789 37.335274
2789.5 37.470001
2790 37.232035
2790.5 37.595052
2791 37.453848
2791.5 37.618843
2792 37.619403
2792.5 37.71964
2793 37.742081
2793.5 37.640369
2794 37.723544
2794.5 37.556651
2795 37.752789
2795.5 37.449628
2796 37.625316
2796.5 37.43363
2797 37.533444
2797.5 37.525991
2798 37.475744
2798.5 37.548763
2799 37.344876
2799.5 37.71401
2800 37.590662
##END=
