##TITLE= W6716_5mm_240124
##JCAMP-DX= 4.24
##DATA TYPE= UV/VIS SPECTRUM
##ORIGIN=  Lambda-SPX/P Scan
##OWNER= Optiplex/OPTIPLEX-755
##DATE= 24.01.2024 17:08:34
##SPECTROMETER/DATA SYSTEM= Lambda 19 UV/Vis/NIR
##SAMPLE DESCRIPTION= 240124
##DELTAX= 0.5
##XUNITS= NANOMETERS
##YUNITS= TRANSMITTANCE
$$COMMENT= RTUNITS 0-1
##XFACTOR= 1.0
##YFACTOR= 0.01
##FIRSTX= 190
##LASTX= 2800
##NPOINTS= 5221
##FIRSTY= 0.002697
##MAXY= 0.339601
##MINY= -0.000077
##XYDATA= (XY..XY)
190 0.269704
190.5 0.16788
191 0.168863
191.5 0.133067
192 0.136794
192.5 0.11511
193 0.088899
193.5 0.062947
194 0.042539
194.5 0.039058
195 0.022542
195.5 0.02118
196 0.007868
196.5 0.008032
197 0.005822
197.5 0.006913
198 0.002847
198.5 0.010078
199 0.005585
199.5 0.00294
200 0.000118
200.5 0.004044
201 0.000553
201.5 0.002995
202 0.004322
202.5 -0.000338
203 0.004125
203.5 0.004478
204 0.003039
204.5 0.000185
205 0.00555
205.5 0.003753
206 0.002337
206.5 0.004759
207 -0.001646
207.5 0.008314
208 0.000334
208.5 0.00802
209 -0.007695
209.5 0.008499
210 -0.005721
210.5 0.006755
211 -0.001107
211.5 0.000161
212 0.00151
212.5 0.008304
213 0.00341
213.5 -0.002234
214 0.003524
214.5 -0.000784
215 0.006657
215.5 0.004425
216 0.004229
216.5 0.005752
217 0.003267
217.5 0.006937
218 -0.001589
218.5 0.0106
219 -0.00248
219.5 0.007747
220 -0.001007
220.5 0.005047
221 0.001218
221.5 0.00675
222 0.0049
222.5 -0.000001
223 0.007527
223.5 0.003013
224 0.006759
224.5 0.000996
225 0.005473
225.5 0.004485
226 0.005985
226.5 0.007232
227 0.007193
227.5 0.009572
228 0.006953
228.5 0.014653
229 0.008858
229.5 0.01989
230 0.012264
230.5 0.018799
231 0.015558
231.5 0.019339
232 0.02323
232.5 0.023897
233 0.028684
233.5 0.024631
234 0.032922
234.5 0.029192
235 0.035759
235.5 0.033367
236 0.037488
236.5 0.037396
237 0.037969
237.5 0.039239
238 0.041756
238.5 0.044109
239 0.038192
239.5 0.04409
240 0.04306
240.5 0.045846
241 0.039027
241.5 0.043182
242 0.042292
242.5 0.042074
243 0.042873
243.5 0.037074
244 0.044967
244.5 0.039489
245 0.03986
245.5 0.030034
246 0.041012
246.5 0.026742
247 0.038745
247.5 0.02924
248 0.032373
248.5 0.033467
249 0.037525
249.5 0.031874
250 0.02666
250.5 0.034338
251 0.029562
251.5 0.034442
252 0.030303
252.5 0.030788
253 0.031176
253.5 0.029292
254 0.031256
254.5 0.023578
255 0.034595
255.5 0.022385
256 0.028121
256.5 0.018421
257 0.027812
257.5 0.020736
258 0.02718
258.5 0.021567
259 0.018655
259.5 0.022136
260 0.020908
260.5 0.023023
261 0.021272
261.5 0.025063
262 0.020317
262.5 0.022412
263 0.022441
263.5 0.016523
264 0.02169
264.5 0.017257
265 0.021543
265.5 0.014875
266 0.026741
266.5 0.016837
267 0.024491
267.5 0.019349
268 0.016028
268.5 0.019589
269 0.018282
269.5 0.020081
270 0.013437
270.5 0.021908
271 0.014393
271.5 0.021881
272 0.01766
272.5 0.019054
273 0.014648
273.5 0.017854
274 0.015526
274.5 0.017914
275 0.019582
275.5 0.013905
276 0.019425
276.5 0.020494
277 0.020022
277.5 0.017004
278 0.021731
278.5 0.019545
279 0.017129
279.5 0.019559
280 0.015138
280.5 0.022776
281 0.020027
281.5 0.019962
282 0.012767
282.5 0.024414
283 0.012444
283.5 0.018547
284 0.015742
284.5 0.018201
285 0.019956
285.5 0.024551
286 0.020506
286.5 0.015817
287 0.021098
287.5 0.020638
288 0.022686
288.5 0.019885
289 0.021714
289.5 0.022576
290 0.023185
290.5 0.023486
291 0.018889
291.5 0.028107
292 0.020994
292.5 0.028521
293 0.019086
293.5 0.028907
294 0.019678
294.5 0.029195
295 0.026235
295.5 0.025422
296 0.029706
296.5 0.029315
297 0.031495
297.5 0.024518
298 0.032847
298.5 0.031235
299 0.036938
299.5 0.036288
300 0.033398
300.5 0.038489
301 0.03694
301.5 0.041791
302 0.037981
302.5 0.051655
303 0.03876
303.5 0.050758
304 0.043842
304.5 0.047158
305 0.050774
305.5 0.051499
306 0.055879
306.5 0.052226
307 0.061192
307.5 0.056648
308 0.067398
308.5 0.064247
309 0.064169
309.5 0.066586
310 0.07733
310.5 0.078695
311 0.081578
311.5 0.082414
312 0.083755
312.5 0.093834
313 0.093512
313.5 0.104459
314 0.101337
314.5 0.110294
315 0.11321
315.5 0.119208
316 0.122618
316.5 0.126936
317 0.141803
317.5 0.141618
318 0.148063
318.5 0.139299
319 0.138928
319.5 0.167061
320 0.172946
320.5 0.184176
321 0.186509
321.5 0.195998
322 0.199716
322.5 0.218154
323 0.224189
323.5 0.23936
324 0.235538
324.5 0.250311
325 0.257578
325.5 0.267682
326 0.277534
326.5 0.292474
327 0.305582
327.5 0.305209
328 0.323484
328.5 0.324349
329 0.344251
329.5 0.350206
330 0.369307
330.5 0.374647
331 0.386624
331.5 0.397648
332 0.416929
332.5 0.430015
333 0.438591
333.5 0.460494
334 0.472048
334.5 0.486703
335 0.48993
335.5 0.514693
336 0.528474
336.5 0.538448
337 0.554418
337.5 0.557587
338 0.598198
338.5 0.602966
339 0.62486
339.5 0.628189
340 0.660569
340.5 0.663608
341 0.686352
341.5 0.704874
342 0.718999
342.5 0.737911
343 0.752875
343.5 0.782612
344 0.788126
344.5 0.818636
345 0.823642
345.5 0.857396
346 0.87794
346.5 0.893138
347 0.918331
347.5 0.93373
348 0.961066
348.5 0.968795
349 1.003706
349.5 1.019031
350 1.047286
350.5 1.065724
351 1.092116
351.5 1.106679
352 1.13797
352.5 1.164275
353 1.173788
353.5 1.206759
354 1.217132
354.5 1.246151
355 1.260558
355.5 1.288691
356 1.30538
356.5 1.331082
357 1.359127
357.5 1.371457
358 1.396426
358.5 1.415908
359 1.432161
359.5 1.464232
360 1.485272
360.5 1.512513
361 1.537378
361.5 1.567965
362 1.587225
362.5 1.61307
363 1.646044
363.5 1.670608
364 1.691996
364.5 1.727363
365 1.751253
365.5 1.78611
366 1.811983
366.5 1.850035
367 1.874539
367.5 1.911597
368 1.946342
368.5 1.984516
369 2.028977
369.5 2.057561
370 2.1155
370.5 2.154562
371 2.198794
371.5 2.242872
372 2.294192
372.5 2.347911
373 2.38483
373.5 2.462673
374 2.495512
374.5 2.567467
375 2.619852
375.5 2.701005
376 2.748799
376.5 2.818431
377 2.867079
377.5 2.960627
378 3.038235
378.5 3.108499
379 3.186329
379.5 3.326285
380 3.391358
380.5 3.492885
381 3.570358
381.5 3.66625
382 3.760011
382.5 3.886305
383 3.946388
383.5 4.058757
384 4.15423
384.5 4.286669
385 4.391269
385.5 4.476991
386 4.627614
386.5 4.689244
387 4.82962
387.5 4.958047
388 5.065418
388.5 5.193279
389 5.325942
389.5 5.433939
390 5.555101
390.5 5.693261
391 5.802311
391.5 5.9207
392 6.050783
392.5 6.229312
393 6.299192
393.5 6.419177
394 6.537465
394.5 6.677831
395 6.790679
395.5 6.90609
396 7.00905
396.5 7.134838
397 7.254773
397.5 7.368954
398 7.487781
398.5 7.560358
399 7.70615
399.5 7.798622
400 7.892737
400.5 8.009022
401 8.07854
401.5 8.194538
402 8.300543
402.5 8.376981
403 8.433051
403.5 8.514731
404 8.605851
404.5 8.690132
405 8.746456
405.5 8.829264
406 8.876533
406.5 8.952023
407 8.997799
407.5 9.057477
408 9.100115
408.5 9.1739
409 9.210671
409.5 9.257127
410 9.339129
410.5 9.334973
411 9.369545
411.5 9.421419
412 9.478063
412.5 9.469898
413 9.510735
413.5 9.541571
414 9.572789
414.5 9.583261
415 9.612982
415.5 9.618804
416 9.632489
416.5 9.638862
417 9.624963
417.5 9.632096
418 9.706353
418.5 9.617357
419 9.646875
419.5 9.637474
420 9.623679
420.5 9.631136
421 9.639562
421.5 9.622539
422 9.612294
422.5 9.558018
423 9.553603
423.5 9.55224
424 9.514719
424.5 9.530981
425 9.480535
425.5 9.476602
426 9.455506
426.5 9.397995
427 9.386082
427.5 9.38675
428 9.352702
428.5 9.303938
429 9.291479
429.5 9.266282
430 9.228729
430.5 9.159246
431 9.160315
431.5 9.147978
432 9.076979
432.5 9.070447
433 9.031234
433.5 8.998346
434 8.945061
434.5 8.921089
435 8.850109
435.5 8.841826
436 8.818626
436.5 8.769803
437 8.720466
437.5 8.676761
438 8.666697
438.5 8.607852
439 8.609688
439.5 8.583862
440 8.555295
440.5 8.467161
441 8.458539
441.5 8.423091
442 8.418074
442.5 8.367991
443 8.312597
443.5 8.306991
444 8.248681
444.5 8.216862
445 8.206411
445.5 8.181968
446 8.109862
446.5 8.126457
447 8.085456
447.5 8.067503
448 8.042458
448.5 8.011439
449 8.001468
449.5 7.955909
450 7.973278
450.5 7.918054
451 7.914099
451.5 7.891814
452 7.894465
452.5 7.867634
453 7.837722
453.5 7.843427
454 7.811761
454.5 7.785265
455 7.765074
455.5 7.773472
456 7.741342
456.5 7.752162
457 7.703985
457.5 7.721849
458 7.690751
458.5 7.696521
459 7.691368
459.5 7.685233
460 7.696163
460.5 7.675425
461 7.658076
461.5 7.644362
462 7.621618
462.5 7.635327
463 7.649426
463.5 7.645784
464 7.638869
464.5 7.615164
465 7.592081
465.5 7.605762
466 7.609243
466.5 7.619029
467 7.620262
467.5 7.606221
468 7.564617
468.5 7.594322
469 7.591813
469.5 7.582222
470 7.583886
470.5 7.598809
471 7.593558
471.5 7.592032
472 7.588043
472.5 7.567768
473 7.584353
473.5 7.584217
474 7.574619
474.5 7.594159
475 7.592557
475.5 7.615744
476 7.593157
476.5 7.617066
477 7.593752
477.5 7.611255
478 7.619655
478.5 7.643326
479 7.647674
479.5 7.644563
480 7.648513
480.5 7.652938
481 7.673015
481.5 7.68416
482 7.691789
482.5 7.69643
483 7.711165
483.5 7.733525
484 7.724359
484.5 7.742142
485 7.769348
485.5 7.783967
486 7.784859
486.5 7.786424
487 7.809149
487.5 7.82455
488 7.828454
488.5 7.841119
489 7.847597
489.5 7.858696
490 7.888068
490.5 7.86714
491 7.885642
491.5 7.889537
492 7.895842
492.5 7.916956
493 7.926605
493.5 7.915124
494 7.945297
494.5 7.95545
495 7.940252
495.5 7.94749
496 7.951253
496.5 7.983443
497 7.997144
497.5 8.001607
498 7.99362
498.5 7.980172
499 8.002864
499.5 8.019599
500 8.004076
500.5 8.021374
501 8.014371
501.5 8.011384
502 8.040383
502.5 8.03138
503 8.050846
503.5 8.048809
504 8.06917
504.5 8.046381
505 8.072978
505.5 8.079858
506 8.055016
506.5 8.09809
507 8.107756
507.5 8.10638
508 8.106112
508.5 8.124433
509 8.122394
509.5 8.134673
510 8.138942
510.5 8.151828
511 8.163341
511.5 8.178042
512 8.190349
512.5 8.183124
513 8.208527
513.5 8.19725
514 8.206512
514.5 8.238363
515 8.238994
515.5 8.241603
516 8.250742
516.5 8.258495
517 8.260087
517.5 8.274835
518 8.286497
518.5 8.2759
519 8.290812
519.5 8.301467
520 8.304592
520.5 8.318501
521 8.311795
521.5 8.316924
522 8.337248
522.5 8.328843
523 8.346886
523.5 8.353295
524 8.358683
524.5 8.367468
525 8.357646
525.5 8.36006
526 8.362357
526.5 8.375496
527 8.383057
527.5 8.387706
528 8.38808
528.5 8.395433
529 8.394098
529.5 8.399288
530 8.392882
530.5 8.401608
531 8.399682
531.5 8.405499
532 8.39921
532.5 8.401685
533 8.416502
533.5 8.403375
534 8.414331
534.5 8.410669
535 8.419104
535.5 8.397286
536 8.427341
536.5 8.424883
537 8.420405
537.5 8.421139
538 8.434481
538.5 8.427975
539 8.41166
539.5 8.443776
540 8.411423
540.5 8.439919
541 8.428689
541.5 8.432107
542 8.438489
542.5 8.438963
543 8.424097
543.5 8.413428
544 8.433735
544.5 8.413855
545 8.430741
545.5 8.428884
546 8.43607
546.5 8.426551
547 8.423626
547.5 8.430862
548 8.421841
548.5 8.424834
549 8.403771
549.5 8.417924
550 8.414955
550.5 8.411692
551 8.388067
551.5 8.408101
552 8.400305
552.5 8.378154
553 8.401986
553.5 8.402903
554 8.387003
554.5 8.391102
555 8.381145
555.5 8.366983
556 8.383872
556.5 8.361363
557 8.362344
557.5 8.343949
558 8.349963
558.5 8.35915
559 8.328997
559.5 8.329765
560 8.312386
560.5 8.333194
561 8.2975
561.5 8.300821
562 8.317983
562.5 8.275351
563 8.269326
563.5 8.252606
564 8.259588
564.5 8.252838
565 8.245463
565.5 8.230002
566 8.229624
566.5 8.238985
567 8.212172
567.5 8.226427
568 8.213314
568.5 8.203277
569 8.191872
569.5 8.193527
570 8.184718
570.5 8.168616
571 8.17096
571.5 8.159538
572 8.162782
572.5 8.158869
573 8.154979
573.5 8.146748
574 8.144172
574.5 8.134907
575 8.122654
575.5 8.130384
576 8.12259
576.5 8.114098
577 8.114976
577.5 8.11137
578 8.100791
578.5 8.119569
579 8.104598
579.5 8.095727
580 8.096806
580.5 8.084396
581 8.102906
581.5 8.084216
582 8.096316
582.5 8.094557
583 8.099555
583.5 8.08834
584 8.093071
584.5 8.097374
585 8.101121
585.5 8.099847
586 8.085651
586.5 8.109232
587 8.099457
587.5 8.116876
588 8.110199
588.5 8.114121
589 8.1256
589.5 8.117661
590 8.137616
590.5 8.132798
591 8.133325
591.5 8.136796
592 8.142617
592.5 8.133291
593 8.160879
593.5 8.167958
594 8.181546
594.5 8.186874
595 8.189105
595.5 8.209617
596 8.200983
596.5 8.209341
597 8.229227
597.5 8.227275
598 8.233857
598.5 8.254004
599 8.272757
599.5 8.264017
600 8.270773
600.5 8.293061
601 8.312973
601.5 8.304562
602 8.313207
602.5 8.322651
603 8.356564
603.5 8.365906
604 8.369732
604.5 8.381409
605 8.388856
605.5 8.403588
606 8.424517
606.5 8.425795
607 8.446648
607.5 8.465458
608 8.469017
608.5 8.487771
609 8.487479
609.5 8.516926
610 8.525454
610.5 8.540561
611 8.555769
611.5 8.556548
612 8.596341
612.5 8.595794
613 8.608435
613.5 8.626242
614 8.646666
614.5 8.661069
615 8.668316
615.5 8.691076
616 8.704505
616.5 8.706667
617 8.734144
617.5 8.744539
618 8.771726
618.5 8.790324
619 8.790725
619.5 8.836185
620 8.831199
620.5 8.841594
621 8.862244
621.5 8.885251
622 8.891721
622.5 8.911812
623 8.932162
623.5 8.937443
624 8.937772
624.5 8.964787
625 8.971784
625.5 9.007838
626 9.015591
626.5 9.020341
627 9.042893
627.5 9.06686
628 9.077332
628.5 9.103677
629 9.102163
629.5 9.125125
630 9.150851
630.5 9.155482
631 9.182359
631.5 9.200733
632 9.226137
632.5 9.235836
633 9.249029
633.5 9.275638
634 9.284379
634.5 9.285271
635 9.327734
635.5 9.340436
636 9.350418
636.5 9.383193
637 9.394126
637.5 9.417304
638 9.425607
638.5 9.447753
639 9.453371
639.5 9.484095
640 9.506194
640.5 9.503117
641 9.506707
641.5 9.539054
642 9.564877
642.5 9.585004
643 9.61111
643.5 9.624524
644 9.642084
644.5 9.661121
645 9.679259
645.5 9.70191
646 9.720691
646.5 9.750199
647 9.757118
647.5 9.778945
648 9.804036
648.5 9.832287
649 9.831856
649.5 9.847137
650 9.864745
650.5 9.881079
651 9.907986
651.5 9.930465
652 9.950172
652.5 9.964848
653 9.992415
653.5 10.004614
654 10.023272
654.5 10.048631
655 10.061377
655.5 10.088059
656 10.099892
656.5 10.100842
657 10.128023
657.5 10.153813
658 10.182627
658.5 10.183471
659 10.214031
659.5 10.232234
660 10.247771
660.5 10.27228
661 10.283811
661.5 10.297352
662 10.333788
662.5 10.332928
663 10.351255
663.5 10.366549
664 10.391574
664.5 10.400528
665 10.426392
665.5 10.423282
666 10.465945
666.5 10.473105
667 10.492472
667.5 10.49225
668 10.510044
668.5 10.529436
669 10.549647
669.5 10.583448
670 10.586814
670.5 10.610332
671 10.614523
671.5 10.640633
672 10.656734
672.5 10.654731
673 10.669012
673.5 10.698648
674 10.710802
674.5 10.720889
675 10.750436
675.5 10.744976
676 10.778033
676.5 10.787354
677 10.787245
677.5 10.816549
678 10.819034
678.5 10.871244
679 10.861057
679.5 10.881603
680 10.872525
680.5 10.898293
681 10.920195
681.5 10.915505
682 10.950585
682.5 10.960708
683 10.968504
683.5 10.994874
684 11.000542
684.5 11.011935
685 11.012246
685.5 11.011884
686 11.054645
686.5 11.06438
687 11.078129
687.5 11.094317
688 11.091685
688.5 11.122867
689 11.133903
689.5 11.16746
690 11.144189
690.5 11.17188
691 11.196139
691.5 11.203863
692 11.212943
692.5 11.221129
693 11.234721
693.5 11.229784
694 11.263136
694.5 11.271945
695 11.281727
695.5 11.308572
696 11.292467
696.5 11.326406
697 11.311115
697.5 11.351369
698 11.34602
698.5 11.391201
699 11.380081
699.5 11.399726
700 11.398372
700.5 11.406287
701 11.429232
701.5 11.42374
702 11.444219
702.5 11.469992
703 11.466832
703.5 11.477737
704 11.504927
704.5 11.507348
705 11.530926
705.5 11.513072
706 11.540495
706.5 11.553965
707 11.542243
707.5 11.588114
708 11.572495
708.5 11.560757
709 11.583968
709.5 11.625744
710 11.616042
710.5 11.635967
711 11.646323
711.5 11.639993
712 11.657919
712.5 11.669248
713 11.692178
713.5 11.687855
714 11.710171
714.5 11.729125
715 11.760083
715.5 11.746335
716 11.769111
716.5 11.771986
717 11.779361
717.5 11.786279
718 11.797369
718.5 11.816482
719 11.847109
719.5 11.847681
720 11.847709
720.5 11.878826
721 11.887509
721.5 11.866889
722 11.897186
722.5 11.903372
723 11.909749
723.5 11.939961
724 11.956833
724.5 11.928599
725 11.965799
725.5 11.955116
726 11.974031
726.5 11.968265
727 11.991443
727.5 12.00031
728 12.034542
728.5 12.044349
729 12.031333
729.5 12.02662
730 12.057815
730.5 12.051535
731 12.097343
731.5 12.098916
732 12.131791
732.5 12.111841
733 12.127299
733.5 12.140948
734 12.143741
734.5 12.139631
735 12.163176
735.5 12.153498
736 12.186113
736.5 12.189053
737 12.211241
737.5 12.214904
738 12.241543
738.5 12.244403
739 12.248658
739.5 12.246999
740 12.267083
740.5 12.274654
741 12.257497
741.5 12.281717
742 12.298957
742.5 12.312588
743 12.31102
743.5 12.299176
744 12.303478
744.5 12.341984
745 12.343644
745.5 12.331806
746 12.376469
746.5 12.358313
747 12.383515
747.5 12.392817
748 12.411769
748.5 12.41793
749 12.382907
749.5 12.434427
750 12.409762
750.5 12.425023
751 12.410467
751.5 12.432821
752 12.463529
752.5 12.463286
753 12.441441
753.5 12.476467
754 12.466898
754.5 12.495745
755 12.524796
755.5 12.49909
756 12.49973
756.5 12.548484
757 12.541242
757.5 12.504464
758 12.549573
758.5 12.529542
759 12.512149
759.5 12.539124
760 12.525259
760.5 12.56645
761 12.586968
761.5 12.572028
762 12.551486
762.5 12.596847
763 12.625757
763.5 12.602474
764 12.610674
764.5 12.595019
765 12.643901
765.5 12.630022
766 12.616551
766.5 12.605338
767 12.658687
767.5 12.624927
768 12.634508
768.5 12.617838
769 12.650934
769.5 12.633954
770 12.641196
770.5 12.643906
771 12.648596
771.5 12.667027
772 12.648085
772.5 12.69666
773 12.668297
773.5 12.688139
774 12.689361
774.5 12.716277
775 12.705627
775.5 12.697662
776 12.69991
776.5 12.676083
777 12.671432
777.5 12.699284
778 12.744619
778.5 12.751563
779 12.735659
779.5 12.701383
780 12.697238
780.5 12.73115
781 12.700215
781.5 12.756895
782 12.770283
782.5 12.748839
783 12.729904
783.5 12.799875
784 12.786755
784.5 12.772059
785 12.772101
785.5 12.772508
786 12.835523
786.5 12.784182
787 12.741579
787.5 12.788123
788 12.811247
788.5 12.778932
789 12.767696
789.5 12.759985
790 12.796608
790.5 12.813593
791 12.818481
791.5 12.814362
792 12.798096
792.5 12.809834
793 12.812351
793.5 12.837662
794 12.803809
794.5 12.80039
795 12.820882
795.5 12.8474
796 12.831052
796.5 12.812395
797 12.811628
797.5 12.797719
798 12.883747
798.5 12.847504
799 12.82417
799.5 12.82279
800 12.83675
800.5 12.853542
801 12.781836
801.5 12.810467
802 12.856852
802.5 12.841067
803 12.798786
803.5 12.857242
804 12.863423
804.5 12.882775
805 12.848943
805.5 12.817819
806 12.880009
806.5 12.89022
807 12.866294
807.5 12.854694
808 12.836954
808.5 12.850069
809 12.869418
809.5 12.854891
810 12.873839
810.5 12.876016
811 12.8727
811.5 12.916476
812 12.915026
812.5 12.872386
813 12.856144
813.5 12.851688
814 12.877904
814.5 12.86612
815 12.826423
815.5 12.795036
816 12.855276
816.5 12.883125
817 12.867904
817.5 12.843345
818 12.866846
818.5 12.83507
819 12.897322
819.5 12.84551
820 12.86912
820.5 12.85138
821 12.858883
821.5 12.8098
822 12.8362
822.5 12.817831
823 12.839769
823.5 12.851673
824 12.800315
824.5 12.844211
825 12.818407
825.5 12.799494
826 12.831071
826.5 12.830696
827 12.756428
827.5 12.767267
828 12.765704
828.5 12.787405
829 12.796296
829.5 12.772597
830 12.776123
830.5 12.771848
831 12.797248
831.5 12.774791
832 12.754521
832.5 12.753317
833 12.697738
833.5 12.66997
834 12.725173
834.5 12.695271
835 12.721226
835.5 12.676941
836 12.699287
836.5 12.66598
837 12.656456
837.5 12.752664
838 12.691955
838.5 12.723584
839 12.624662
839.5 12.655611
840 12.661798
840.5 12.650739
841 12.595879
841.5 12.651645
842 12.599996
842.5 12.607151
843 12.617941
843.5 12.637646
844 12.654458
844.5 12.581469
845 12.624742
845.5 12.607235
846 12.62657
846.5 12.641464
847 12.561549
847.5 12.600712
848 12.617688
848.5 12.589104
849 12.577386
849.5 12.567356
850 12.639871
850.5 12.586714
851 12.51989
851.5 12.471659
852 12.61279
852.5 12.731662
853 12.618104
853.5 12.652394
854 12.600009
854.5 12.679145
855 12.658106
855.5 12.582135
856 12.6131
856.5 12.723225
857 12.550704
857.5 12.699771
858 12.684593
858.5 12.670438
859 12.662892
859.5 12.664676
860 12.69822
860.5 12.645125
861 9.334983
861.5 9.556904
862 9.425896
862.5 9.506708
863 9.46376
863.5 9.535734
864 9.523338
864.5 9.418572
865 9.602315
865.5 9.378786
866 9.633677
866.5 9.310948
867 9.563135
867.5 9.307135
868 9.624153
868.5 9.427251
869 9.445474
869.5 9.423625
870 9.318676
870.5 9.461031
871 9.436545
871.5 9.56017
872 9.3509
872.5 9.578434
873 9.431101
873.5 9.463768
874 9.407152
874.5 9.465232
875 9.564368
875.5 9.39908
876 9.605661
876.5 9.320078
877 9.53813
877.5 9.351461
878 9.526835
878.5 9.326542
879 9.456541
879.5 9.409323
880 9.416682
880.5 9.497473
881 9.287755
881.5 9.585074
882 9.435875
882.5 9.5752
883 9.329667
883.5 9.493688
884 9.460656
884.5 9.477816
885 9.507293
885.5 9.376202
886 9.593063
886.5 9.399669
887 9.595342
887.5 9.3518
888 9.494891
888.5 9.451184
889 9.4741
889.5 9.440506
890 9.403445
890.5 9.555102
891 9.466104
891.5 9.505752
892 9.241839
892.5 9.56078
893 9.389261
893.5 9.490206
894 9.30855
894.5 9.46851
895 9.412313
895.5 9.471089
896 9.543775
896.5 9.354482
897 9.563169
897.5 9.432188
898 9.554805
898.5 9.468969
899 9.445718
899.5 9.500816
900 9.440117
900.5 9.440992
901 9.310049
901.5 9.562626
902 9.40005
902.5 9.565361
903 9.25364
903.5 9.554188
904 9.382112
904.5 9.473411
905 9.444644
905.5 9.450336
906 9.537262
906.5 9.404257
907 9.5417
907.5 9.39353
908 9.588848
908.5 9.323038
909 9.55261
909.5 9.447511
910 9.477293
910.5 9.535212
911 9.452138
911.5 9.531831
912 9.341122
912.5 9.535159
913 9.196126
913.5 9.56412
914 9.383399
914.5 9.502661
915 9.41425
915.5 9.393894
916 9.528005
916.5 9.413002
917 9.495026
917.5 9.358986
918 9.534927
918.5 9.435719
919 9.485216
919.5 9.394545
920 9.532662
920.5 9.505164
921 9.389146
921.5 9.598034
922 9.290714
922.5 9.56165
923 9.360879
923.5 9.549711
924 9.319588
924.5 9.507107
925 9.398389
925.5 9.424293
926 9.473618
926.5 9.260412
927 9.518335
927.5 9.402251
928 9.528337
928.5 9.355151
929 9.572263
929.5 9.450156
930 9.418081
930.5 9.509379
931 9.421814
931.5 9.582841
932 9.377152
932.5 9.429435
933 9.330425
933.5 9.539776
934 9.366522
934.5 9.492359
935 9.395519
935.5 9.329627
936 9.440833
936.5 9.40375
937 9.48563
937.5 9.222102
938 9.49135
938.5 9.349374
939 9.429387
939.5 9.337116
940 9.458835
940.5 9.415901
941 9.380414
941.5 9.46878
942 9.299108
942.5 9.494703
943 9.375535
943.5 9.477873
944 9.337289
944.5 9.419434
945 9.385548
945.5 9.38808
946 9.446173
946.5 9.251036
947 9.452163
947.5 9.367575
948 9.489165
948.5 9.283435
949 9.474648
949.5 9.274732
950 9.390833
950.5 9.328347
951 9.455771
951.5 9.449349
952 9.368835
952.5 9.375878
953 9.364656
953.5 9.551596
954 9.26699
954.5 9.477241
955 9.376509
955.5 9.329294
956 9.385094
956.5 9.354813
957 9.38891
957.5 9.206422
958 9.465327
958.5 9.214446
959 9.414268
959.5 9.205742
960 9.430671
960.5 9.313795
961 9.349692
961.5 9.355404
962 9.373081
962.5 9.484909
963 9.301157
963.5 9.412232
964 9.358916
964.5 9.431561
965 9.311143
965.5 9.446489
966 9.392966
966.5 9.315874
967 9.445287
967.5 9.251989
968 9.430637
968.5 9.149915
969 9.453358
969.5 9.191434
970 9.339086
970.5 9.302429
971 9.324807
971.5 9.324963
972 9.221349
972.5 9.439681
973 9.278271
973.5 9.403884
974 9.243653
974.5 9.444887
975 9.301589
975.5 9.39634
976 9.340343
976.5 9.336545
977 9.343181
977.5 9.292326
978 9.490579
978.5 9.237587
979 9.504708
979.5 9.199636
980 9.374198
980.5 9.303059
981 9.304899
981.5 9.356505
982 9.306011
982.5 9.340394
983 9.146036
983.5 9.406702
984 9.289256
984.5 9.408559
985 9.227337
985.5 9.39191
986 9.378566
986.5 9.347793
987 9.370418
987.5 9.256864
988 9.448064
988.5 9.306221
989 9.418894
989.5 9.239298
990 9.492481
990.5 9.288629
991 9.331562
991.5 9.28543
992 9.198744
992.5 9.376686
993 9.344345
993.5 9.363841
994 9.075526
994.5 9.397157
995 9.191886
995.5 9.351522
996 9.330692
996.5 9.300179
997 9.305121
997.5 9.281681
998 9.421273
998.5 9.278516
999 9.398866
999.5 9.242863
1000 9.351792
1000.5 9.295971
1001 9.361518
1001.5 9.385926
1002 9.353714
1002.5 9.295023
1003 9.191857
1003.5 9.408748
1004 9.165326
1004.5 9.476113
1005 9.189797
1005.5 9.392583
1006 9.155458
1006.5 9.392036
1007 9.337726
1007.5 9.263576
1008 9.393139
1008.5 9.234513
1009 9.34131
1009.5 9.292751
1010 9.4382
1010.5 9.244016
1011 9.367306
1011.5 9.358799
1012 9.284691
1012.5 9.425406
1013 9.236386
1013.5 9.421951
1014 9.246129
1014.5 9.379531
1015 9.163942
1015.5 9.407057
1016 9.245937
1016.5 9.274056
1017 9.259303
1017.5 9.252128
1018 9.384496
1018.5 9.226272
1019 9.369501
1019.5 9.116751
1020 9.450336
1020.5 9.267841
1021 9.356938
1021.5 9.259639
1022 9.290794
1022.5 9.430482
1023 9.343886
1023.5 9.45405
1024 9.148172
1024.5 9.384789
1025 9.206085
1025.5 9.395516
1026 9.197419
1026.5 9.302749
1027 9.294483
1027.5 9.365232
1028 9.389669
1028.5 9.133703
1029 9.428428
1029.5 9.319469
1030 9.40657
1030.5 9.174757
1031 9.418251
1031.5 9.268808
1032 9.297317
1032.5 9.426053
1033 9.315675
1033.5 9.452134
1034 9.275375
1034.5 9.399468
1035 9.199572
1035.5 9.325092
1036 9.324041
1036.5 9.385458
1037 9.242672
1037.5 9.250743
1038 9.390602
1038.5 9.285637
1039 9.297664
1039.5 9.150492
1040 9.405737
1040.5 9.193238
1041 9.456683
1041.5 9.271556
1042 9.437426
1042.5 9.343565
1043 9.435792
1043.5 9.36453
1044 9.259687
1044.5 9.372426
1045 9.203011
1045.5 9.357824
1046 9.249226
1046.5 9.399384
1047 9.40561
1047.5 9.389412
1048 9.253681
1048.5 9.222143
1049 9.46768
1049.5 9.234724
1050 9.467971
1050.5 9.141602
1051 9.434693
1051.5 9.17881
1052 9.390201
1052.5 9.287398
1053 9.362774
1053.5 9.330627
1054 9.308243
1054.5 9.439148
1055 9.309338
1055.5 9.517046
1056 9.203298
1056.5 9.386171
1057 9.264259
1057.5 9.337385
1058 9.416777
1058.5 9.453592
1059 9.420665
1059.5 9.22598
1060 9.399709
1060.5 9.099354
1061 9.480795
1061.5 9.27026
1062 9.418616
1062.5 9.293457
1063 9.341726
1063.5 9.353355
1064 9.347586
1064.5 9.416828
1065 9.222031
1065.5 9.434711
1066 9.30365
1066.5 9.388314
1067 9.212491
1067.5 9.427786
1068 9.423084
1068.5 9.388156
1069 9.529334
1069.5 9.246828
1070 9.528024
1070.5 9.255899
1071 9.38862
1071.5 9.147903
1072 9.365304
1072.5 9.271242
1073 9.372836
1073.5 9.367473
1074 9.219404
1074.5 9.397253
1075 9.406505
1075.5 9.537778
1076 9.315722
1076.5 9.514711
1077 9.355179
1077.5 9.416695
1078 9.315965
1078.5 9.330928
1079 9.409381
1079.5 9.342486
1080 9.549103
1080.5 9.356365
1081 9.516694
1081.5 9.29416
1082 9.384629
1082.5 9.36733
1083 9.345869
1083.5 9.399381
1084 9.304329
1084.5 9.360703
1085 9.195314
1085.5 9.487073
1086 9.368523
1086.5 9.451366
1087 9.277006
1087.5 9.54128
1088 9.338273
1088.5 9.404557
1089 9.392237
1089.5 9.340549
1090 9.420354
1090.5 9.404849
1091 9.488747
1091.5 9.378489
1092 9.530797
1092.5 9.389599
1093 9.446257
1093.5 9.381481
1094 9.318617
1094.5 9.469076
1095 9.312879
1095.5 9.404986
1096 9.203941
1096.5 9.521661
1097 9.324402
1097.5 9.536815
1098 9.36568
1098.5 9.456568
1099 9.403913
1099.5 9.425811
1100 9.454689
1100.5 9.376258
1101 9.476542
1101.5 9.342126
1102 9.586306
1102.5 9.378106
1103 9.489472
1103.5 9.434039
1104 9.474847
1104.5 9.523993
1105 9.337984
1105.5 9.543834
1106 9.262062
1106.5 9.519643
1107 9.224339
1107.5 9.421611
1108 9.349179
1108.5 9.510427
1109 9.477585
1109.5 9.457202
1110 9.527519
1110.5 9.366703
1111 9.601116
1111.5 9.426972
1112 9.603338
1112.5 9.411737
1113 9.544925
1113.5 9.512526
1114 9.497628
1114.5 9.543116
1115 9.4827
1115.5 9.592745
1116 9.391063
1116.5 9.626264
1117 9.34502
1117.5 9.602054
1118 9.405407
1118.5 9.497665
1119 9.43237
1119.5 9.352406
1120 9.524677
1120.5 9.463149
1121 9.509975
1121.5 9.340828
1122 9.626539
1122.5 9.509411
1123 9.627729
1123.5 9.517803
1124 9.536172
1124.5 9.539174
1125 9.499589
1125.5 9.613448
1126 9.515427
1126.5 9.659978
1127 9.489006
1127.5 9.623745
1128 9.511272
1128.5 9.571944
1129 9.575654
1129.5 9.530266
1130 9.665032
1130.5 9.42018
1131 9.636558
1131.5 9.555426
1132 9.561256
1132.5 9.267796
1133 9.421345
1133.5 9.334977
1134 9.452359
1134.5 9.538649
1135 9.527556
1135.5 9.628
1136 9.53932
1136.5 9.656413
1137 9.428456
1137.5 9.641758
1138 9.495468
1138.5 9.608062
1139 9.474182
1139.5 9.519693
1140 9.579289
1140.5 9.56957
1141 9.641059
1141.5 9.356192
1142 9.589839
1142.5 9.401371
1143 9.600883
1143.5 9.514436
1144 9.685303
1144.5 9.559087
1145 9.664284
1145.5 9.627846
1146 9.629037
1146.5 9.716563
1147 9.56533
1147.5 9.667158
1148 9.500468
1148.5 9.639599
1149 9.635872
1149.5 9.622791
1150 9.646182
1150.5 9.451517
1151 9.65526
1151.5 9.408739
1152 9.687671
1152.5 9.34886
1153 9.716764
1153.5 9.477305
1154 9.745383
1154.5 9.602989
1155 9.664435
1155.5 9.682519
1156 9.593803
1156.5 9.685874
1157 9.592651
1157.5 9.734195
1158 9.565385
1158.5 9.745364
1159 9.649279
1159.5 9.666521
1160 9.727763
1160.5 9.656983
1161 9.745744
1161.5 9.547645
1162 9.743337
1162.5 9.478292
1163 9.764087
1163.5 9.542123
1164 9.728688
1164.5 9.597228
1165 9.632024
1165.5 9.697256
1166 9.644081
1166.5 9.717517
1167 9.518905
1167.5 9.776942
1168 9.635298
1168.5 9.795003
1169 9.59831
1169.5 9.753424
1170 9.7073
1170.5 9.654642
1171 9.78386
1171.5 9.562317
1172 9.820051
1172.5 9.67363
1173 9.808245
1173.5 9.64471
1174 9.758702
1174.5 9.685928
1175 9.716819
1175.5 9.70066
1176 9.587644
1176.5 9.791175
1177 9.64907
1177.5 9.771203
1178 9.576426
1178.5 9.835373
1179 9.653781
1179.5 9.820156
1180 9.700457
1180.5 9.695611
1181 9.825464
1181.5 9.779044
1182 9.850326
1182.5 9.660478
1183 9.863407
1183.5 9.679741
1184 9.785265
1184.5 9.650137
1185 9.687074
1185.5 9.777295
1186 9.724059
1186.5 9.729599
1187 9.542081
1187.5 9.749208
1188 9.571131
1188.5 9.736201
1189 9.504054
1189.5 9.605473
1190 9.46897
1190.5 9.677991
1191 9.847356
1191.5 9.782143
1192 9.752317
1192.5 9.812647
1193 9.641169
1193.5 9.923453
1194 9.644479
1194.5 9.85294
1195 9.652447
1195.5 9.818387
1196 9.729612
1196.5 9.819114
1197 9.834261
1197.5 9.748358
1198 9.906777
1198.5 9.805542
1199 9.839935
1199.5 9.622337
1200 9.850356
1200.5 9.744947
1201 9.892879
1201.5 9.838684
1202 9.774045
1202.5 9.86269
1203 9.801983
1203.5 9.915999
1204 9.749389
1204.5 9.989077
1205 9.782613
1205.5 9.92569
1206 9.785199
1206.5 9.861908
1207 9.884077
1207.5 9.825603
1208 9.932556
1208.5 9.693731
1209 9.945223
1209.5 9.775897
1210 9.939543
1210.5 9.77645
1211 9.937796
1211.5 9.830211
1212 9.958645
1212.5 9.967047
1213 9.822983
1213.5 9.934835
1214 9.839667
1214.5 10.002711
1215 9.831515
1215.5 10.040825
1216 9.835155
1216.5 9.941276
1217 9.930684
1217.5 9.80286
1218 9.992148
1218.5 9.849805
1219 10.026447
1219.5 9.766316
1220 10.08178
1220.5 9.806791
1221 10.020173
1221.5 9.860109
1222 9.987587
1222.5 9.938729
1223 9.925745
1223.5 10.039601
1224 9.927031
1224.5 10.100209
1225 9.860656
1225.5 10.05613
1226 10.01177
1226.5 10.029902
1227 10.004271
1227.5 10.007288
1228 10.014619
1228.5 9.881205
1229 10.089143
1229.5 9.909922
1230 10.103275
1230.5 9.831893
1231 10.113674
1231.5 9.934163
1232 10.064769
1232.5 10.033551
1233 10.002474
1233.5 10.055116
1234 9.863205
1234.5 10.095553
1235 9.968989
1235.5 10.108463
1236 9.956362
1236.5 10.131372
1237 10.070386
1237.5 10.003678
1238 10.066791
1238.5 9.990611
1239 10.121801
1239.5 9.884249
1240 10.116772
1240.5 9.875385
1241 10.11771
1241.5 9.914968
1242 10.051505
1242.5 9.990439
1243 9.962661
1243.5 10.161723
1244 10.036422
1244.5 10.182288
1245 9.931609
1245.5 10.212372
1246 10.112492
1246.5 10.144685
1247 10.050926
1247.5 10.157596
1248 10.12351
1248.5 10.158142
1249 10.205207
1249.5 10.037854
1250 10.258794
1250.5 10.082596
1251 10.157718
1251.5 10.035387
1252 10.120755
1252.5 10.07422
1253 10.122513
1253.5 10.142986
1254 9.990615
1254.5 10.223328
1255 10.0586
1255.5 10.184056
1256 9.946111
1256.5 10.222292
1257 10.063072
1257.5 10.230575
1258 10.092848
1258.5 10.12399
1259 10.203058
1259.5 10.074457
1260 10.0989
1260.5 10.063139
1261 10.267729
1261.5 10.129749
1262 10.225495
1262.5 10.225656
1263 10.127226
1263.5 10.228527
1264 10.194223
1264.5 10.283188
1265 10.068297
1265.5 10.273339
1266 10.023258
1266.5 10.344584
1267 10.083032
1267.5 10.281723
1268 10.204905
1268.5 10.297363
1269 10.240789
1269.5 10.221795
1270 10.29472
1270.5 10.230231
1271 10.387077
1271.5 10.198898
1272 10.314635
1272.5 10.241666
1273 10.329276
1273.5 10.321078
1274 10.216499
1274.5 10.359008
1275 10.195193
1275.5 10.403589
1276 10.104191
1276.5 10.356074
1277 10.154429
1277.5 10.355222
1278 10.233968
1278.5 10.343378
1279 10.278333
1279.5 10.247032
1280 10.378601
1280.5 10.199309
1281 10.408308
1281.5 10.236801
1282 10.423815
1282.5 10.308567
1283 10.354678
1283.5 10.329074
1284 10.309567
1284.5 10.383186
1285 10.219771
1285.5 10.464487
1286 10.193902
1286.5 10.448984
1287 10.231732
1287.5 10.383143
1288 10.245255
1288.5 10.321583
1289 10.353021
1289.5 10.394902
1290 10.378832
1290.5 10.185026
1291 10.464048
1291.5 10.355399
1292 10.49602
1292.5 10.314246
1293 10.427783
1293.5 10.353839
1294 10.423401
1294.5 10.473763
1295 10.381781
1295.5 10.542867
1296 10.362636
1296.5 10.468604
1297 10.276189
1297.5 10.458285
1298 10.330507
1298.5 10.458219
1299 10.368295
1299.5 10.326406
1300 10.487699
1300.5 10.447855
1301 10.429553
1301.5 10.244334
1302 10.56435
1302.5 10.400934
1303 10.530204
1303.5 10.402259
1304 10.457514
1304.5 10.555314
1305 10.506073
1305.5 10.471688
1306 10.438687
1306.5 10.563932
1307 10.422215
1307.5 10.560378
1308 10.502426
1308.5 10.528493
1309 10.542382
1309.5 10.537207
1310 10.484859
1310.5 10.354241
1311 10.592018
1311.5 10.410722
1312 10.638344
1312.5 10.400443
1313 10.653697
1313.5 10.502382
1314 10.726068
1314.5 10.63013
1315 10.682625
1315.5 10.71013
1316 10.475991
1316.5 10.648942
1317 10.472345
1317.5 10.651398
1318 10.485691
1318.5 10.634676
1319 10.539676
1319.5 10.545071
1320 10.664277
1320.5 10.524054
1321 10.689445
1321.5 10.444079
1322 10.686512
1322.5 10.40557
1323 10.723479
1323.5 10.543217
1324 10.675458
1324.5 10.556525
1325 10.53081
1325.5 10.614219
1326 10.579056
1326.5 10.653617
1327 10.443101
1327.5 10.74722
1328 10.553338
1328.5 10.684884
1329 10.634035
1329.5 10.658241
1330 10.722988
1330.5 10.653488
1331 10.831118
1331.5 10.597616
1332 10.83687
1332.5 10.546566
1333 10.725129
1333.5 10.497122
1334 10.713848
1334.5 10.607289
1335 10.629579
1335.5 10.677654
1336 10.556415
1336.5 10.74457
1337 10.649814
1337.5 10.776862
1338 10.593586
1338.5 10.786371
1339 10.667551
1339.5 10.776526
1340 10.775972
1340.5 10.7706
1341 10.853502
1341.5 10.681871
1342 10.844351
1342.5 10.66533
1343 10.788892
1343.5 10.619417
1344 10.761757
1344.5 10.706995
1345 10.67935
1345.5 10.714782
1346 10.729722
1346.5 10.698315
1347 10.531332
1347.5 10.917068
1348 10.79244
1348.5 10.955486
1349 10.739134
1349.5 10.846306
1350 10.808721
1350.5 10.889703
1351 10.786039
1351.5 10.70011
1352 10.876308
1352.5 10.775362
1353 10.886914
1353.5 10.747976
1354 10.820147
1354.5 10.829961
1355 10.980514
1355.5 10.893182
1356 10.696406
1356.5 10.877305
1357 10.881567
1357.5 10.96107
1358 10.641883
1358.5 10.890979
1359 10.725778
1359.5 11.059904
1360 10.791039
1360.5 10.847971
1361 10.718408
1361.5 10.799018
1362 11.059972
1362.5 11.195693
1363 11.06562
1363.5 10.591182
1364 10.790312
1364.5 11.044201
1365 11.173837
1365.5 11.144574
1366 10.876512
1366.5 10.77894
1367 10.638709
1367.5 11.086284
1368 10.949955
1368.5 11.257452
1369 10.770913
1369.5 10.854996
1370 10.779867
1370.5 11.061668
1371 11.080091
1371.5 11.084474
1372 11.159953
1372.5 10.88858
1373 11.060122
1373.5 10.899084
1374 11.065233
1374.5 10.995133
1375 11.027368
1375.5 10.961823
1376 10.912415
1376.5 11.206508
1377 11.072
1377.5 11.027151
1378 10.912511
1378.5 11.279835
1379 10.857541
1379.5 10.916986
1380 10.826416
1380.5 11.237152
1381 11.124993
1381.5 10.693341
1382 10.964218
1382.5 11.205048
1383 11.350302
1383.5 10.981315
1384 11.058407
1384.5 11.02042
1385 11.294021
1385.5 11.244815
1386 11.135181
1386.5 11.029832
1387 10.863425
1387.5 11.222876
1388 11.214359
1388.5 11.333043
1389 11.040456
1389.5 11.168238
1390 11.008576
1390.5 11.036216
1391 11.002287
1391.5 10.902207
1392 11.186504
1392.5 11.15294
1393 11.33308
1393.5 10.933815
1394 10.99213
1394.5 10.983098
1395 11.229005
1395.5 11.17301
1396 11.322194
1396.5 11.452463
1397 11.354761
1397.5 11.249468
1398 11.076904
1398.5 11.105791
1399 10.949245
1399.5 11.113031
1400 11.176766
1400.5 11.394366
1401 11.382501
1401.5 11.367641
1402 11.369836
1402.5 11.264628
1403 11.25528
1403.5 10.905943
1404 11.10897
1404.5 11.180111
1405 11.571392
1405.5 11.241797
1406 11.158421
1406.5 11.204883
1407 11.401281
1407.5 11.429703
1408 11.081301
1408.5 11.273933
1409 11.275434
1409.5 11.53148
1410 11.25812
1410.5 11.261014
1411 11.276832
1411.5 11.349647
1412 11.3068
1412.5 11.132194
1413 11.328824
1413.5 11.128952
1414 11.571937
1414.5 11.290649
1415 11.550697
1415.5 11.289662
1416 11.450835
1416.5 11.271232
1417 11.278681
1417.5 11.313076
1418 11.180417
1418.5 11.466277
1419 11.4386
1419.5 11.592097
1420 11.413915
1420.5 11.541739
1421 11.33999
1421.5 11.401711
1422 11.451456
1422.5 11.289058
1423 11.57652
1423.5 11.443893
1424 11.625396
1424.5 11.19224
1425 11.522494
1425.5 11.347014
1426 11.430927
1426.5 11.330182
1427 11.350311
1427.5 11.464774
1428 11.468385
1428.5 11.537654
1429 11.31409
1429.5 11.529984
1430 11.395463
1430.5 11.513386
1431 11.456752
1431.5 11.650354
1432 11.580843
1432.5 11.549517
1433 11.538971
1433.5 11.41495
1434 11.734576
1434.5 11.460005
1435 11.645568
1435.5 11.404992
1436 11.604714
1436.5 11.533043
1437 11.568107
1437.5 11.539835
1438 11.415451
1438.5 11.555947
1439 11.492418
1439.5 11.63056
1440 11.394718
1440.5 11.703486
1441 11.519586
1441.5 11.649993
1442 11.561408
1442.5 11.603943
1443 11.65496
1443.5 11.533336
1444 11.649499
1444.5 11.536174
1445 11.761777
1445.5 11.728573
1446 11.735383
1446.5 11.566489
1447 11.581485
1447.5 11.638011
1448 11.651734
1448.5 11.566076
1449 11.412253
1449.5 11.738211
1450 11.621775
1450.5 11.803178
1451 11.593717
1451.5 11.752187
1452 11.664733
1452.5 11.800316
1453 11.73167
1453.5 11.647426
1454 11.757112
1454.5 11.633964
1455 11.854738
1455.5 11.624838
1456 11.836651
1456.5 11.717937
1457 11.851346
1457.5 11.768377
1458 11.703967
1458.5 11.904757
1459 11.718729
1459.5 11.92534
1460 11.65901
1460.5 12.009197
1461 11.673343
1461.5 11.962715
1462 11.736929
1462.5 11.860783
1463 11.850623
1463.5 11.742188
1464 11.833876
1464.5 11.722589
1465 11.879093
1465.5 11.704808
1466 11.955855
1466.5 11.822009
1467 11.864421
1467.5 11.810504
1468 11.87899
1468.5 11.851772
1469 11.776645
1469.5 11.98312
1470 11.742713
1470.5 12.03284
1471 11.742333
1471.5 11.943452
1472 11.801136
1472.5 11.983904
1473 11.95906
1473.5 11.955226
1474 11.899737
1474.5 11.75097
1475 12.09824
1475.5 12.006861
1476 12.118249
1476.5 11.840639
1477 12.032266
1477.5 11.9172
1478 11.949042
1478.5 12.020313
1479 11.894879
1479.5 12.125722
1480 11.91431
1480.5 12.090985
1481 11.871637
1481.5 12.082081
1482 11.925544
1482.5 12.005642
1483 11.910805
1483.5 11.928417
1484 12.065168
1484.5 11.958611
1485 12.066945
1485.5 11.831627
1486 12.159819
1486.5 11.999501
1487 12.081242
1487.5 12.021042
1488 12.074671
1488.5 12.060126
1489 12.065829
1489.5 12.145121
1490 12.072217
1490.5 12.265885
1491 12.125168
1491.5 12.245728
1492 12.091565
1492.5 12.226649
1493 12.280408
1493.5 12.322957
1494 12.264522
1494.5 12.0428
1495 12.146077
1495.5 12.032229
1496 12.198665
1496.5 12.051515
1497 12.213083
1497.5 12.096062
1498 12.261696
1498.5 12.182349
1499 12.199732
1499.5 12.297175
1500 12.208463
1500.5 12.248915
1501 12.142445
1501.5 12.311394
1502 12.078603
1502.5 12.316912
1503 12.20217
1503.5 12.211525
1504 12.297472
1504.5 12.316862
1505 12.321133
1505.5 12.172449
1506 12.459284
1506.5 12.18069
1507 12.368114
1507.5 12.200903
1508 12.362234
1508.5 12.26804
1509 12.348095
1509.5 12.281387
1510 12.267479
1510.5 12.391799
1511 12.240062
1511.5 12.438203
1512 12.293088
1512.5 12.37716
1513 12.312733
1513.5 12.456815
1514 12.363073
1514.5 12.292985
1515 12.536487
1515.5 12.297769
1516 12.436175
1516.5 12.254298
1517 12.513821
1517.5 12.294605
1518 12.525336
1518.5 12.427424
1519 12.414618
1519.5 12.50843
1520 12.392662
1520.5 12.642613
1521 12.529583
1521.5 12.687536
1522 12.352808
1522.5 12.538449
1523 12.406277
1523.5 12.525056
1524 12.49145
1524.5 12.512389
1525 12.546366
1525.5 12.410644
1526 12.651385
1526.5 12.432341
1527 12.617564
1527.5 12.40041
1528 12.513867
1528.5 12.43707
1529 12.516811
1529.5 12.622428
1530 12.507379
1530.5 12.620828
1531 12.470335
1531.5 12.770671
1532 12.545311
1532.5 12.771754
1533 12.549525
1533.5 12.612973
1534 12.520668
1534.5 12.608199
1535 12.630834
1535.5 12.59819
1536 12.660356
1536.5 12.579368
1537 12.696284
1537.5 12.61256
1538 12.71378
1538.5 12.612231
1539 12.693524
1539.5 12.628894
1540 12.624076
1540.5 12.740892
1541 12.757114
1541.5 12.805665
1542 12.603174
1542.5 12.900513
1543 12.668607
1543.5 12.812056
1544 12.626588
1544.5 12.806383
1545 12.69771
1545.5 12.785083
1546 12.7472
1546.5 12.658797
1547 12.872832
1547.5 12.686573
1548 12.883693
1548.5 12.762566
1549 12.780051
1549.5 12.815492
1550 12.9041
1550.5 12.878488
1551 12.741533
1551.5 12.926866
1552 12.7369
1552.5 13.011645
1553 12.710346
1553.5 13.023463
1554 12.831691
1554.5 12.944894
1555 12.826361
1555.5 12.845242
1556 12.893181
1556.5 12.768055
1557 12.934823
1557.5 12.854758
1558 13.025175
1558.5 12.806283
1559 13.04615
1559.5 12.919806
1560 12.932134
1560.5 12.939553
1561 12.932207
1561.5 13.033646
1562 12.848747
1562.5 13.059542
1563 12.846005
1563.5 13.148738
1564 12.915434
1564.5 13.066037
1565 13.000153
1565.5 13.080007
1566 13.104652
1566.5 12.981695
1567 13.109818
1567.5 12.840688
1568 13.111427
1568.5 12.985595
1569 13.1023
1569.5 12.990639
1570 13.073979
1570.5 13.074391
1571 13.075243
1571.5 13.249938
1572 12.945494
1572.5 13.193007
1573 13.052873
1573.5 13.158804
1574 13.022932
1574.5 13.19903
1575 13.135865
1575.5 13.206409
1576 13.227057
1576.5 13.045667
1577 13.222133
1577.5 13.137859
1578 13.200805
1578.5 12.98278
1579 13.221894
1579.5 13.080411
1580 13.278657
1580.5 13.158737
1581 13.201614
1581.5 13.241187
1582 13.249417
1582.5 13.312136
1583 13.15991
1583.5 13.381274
1584 13.225694
1584.5 13.258779
1585 13.195986
1585.5 13.284639
1586 13.306142
1586.5 13.277473
1587 13.284494
1587.5 13.133042
1588 13.404383
1588.5 13.207373
1589 13.438137
1589.5 13.130996
1590 13.355768
1590.5 13.214648
1591 13.388085
1591.5 13.335179
1592 13.38755
1592.5 13.383502
1593 13.283046
1593.5 13.451825
1594 13.258334
1594.5 13.493663
1595 13.34596
1595.5 13.47436
1596 13.446438
1596.5 13.37703
1597 13.588157
1597.5 13.418925
1598 13.509379
1598.5 13.220325
1599 13.461351
1599.5 13.161319
1600 13.550103
1600.5 13.293508
1601 13.421887
1601.5 13.492875
1602 13.379739
1602.5 13.490267
1603 13.465098
1603.5 13.587318
1604 13.371058
1604.5 13.632011
1605 13.539
1605.5 13.564739
1606 13.572156
1606.5 13.589543
1607 13.646954
1607.5 13.59815
1608 13.785927
1608.5 13.537559
1609 13.641363
1609.5 13.42313
1610 13.638116
1610.5 13.400672
1611 13.580897
1611.5 13.548018
1612 13.541722
1612.5 13.604172
1613 13.409002
1613.5 13.701157
1614 13.560843
1614.5 13.686804
1615 13.534543
1615.5 13.740624
1616 13.620865
1616.5 13.74215
1617 13.755798
1617.5 13.657299
1618 13.946538
1618.5 13.738972
1619 13.850717
1619.5 13.591549
1620 13.790397
1620.5 13.635114
1621 13.756205
1621.5 13.646044
1622 13.610871
1622.5 13.731635
1623 13.680553
1623.5 13.81267
1624 13.638341
1624.5 13.830407
1625 13.695423
1625.5 13.836774
1626 13.698639
1626.5 13.821527
1627 13.787884
1627.5 13.873024
1628 13.888636
1628.5 13.824084
1629 14.016256
1629.5 13.844725
1630 13.997781
1630.5 13.841218
1631 13.819578
1631.5 13.88021
1632 13.845438
1632.5 13.872489
1633 13.789558
1633.5 13.984984
1634 13.805507
1634.5 13.970731
1635 13.766618
1635.5 13.998117
1636 13.818537
1636.5 14.078435
1637 13.865654
1637.5 13.930587
1638 13.952796
1638.5 13.914444
1639 14.014682
1639.5 13.864818
1640 14.098684
1640.5 13.90194
1641 14.071035
1641.5 13.9962
1642 14.071849
1642.5 14.084952
1643 14.02269
1643.5 14.106649
1644 13.951793
1644.5 14.101905
1645 13.860093
1645.5 14.163817
1646 13.888361
1646.5 14.096914
1647 13.956718
1647.5 14.101474
1648 14.075837
1648.5 14.098282
1649 14.122565
1649.5 13.944703
1650 14.244367
1650.5 14.121057
1651 14.271165
1651.5 14.106146
1652 14.238933
1652.5 14.205702
1653 14.240527
1653.5 14.321871
1654 14.118451
1654.5 14.284346
1655 14.013128
1655.5 14.198951
1656 14.049791
1656.5 14.256746
1657 14.073569
1657.5 14.236456
1658 14.171579
1658.5 14.11621
1659 14.285877
1659.5 14.123335
1660 14.294596
1660.5 14.124176
1661 14.399338
1661.5 14.191943
1662 14.280434
1662.5 14.308302
1663 14.382271
1663.5 14.395113
1664 14.350271
1664.5 14.562827
1665 14.298867
1665.5 14.385004
1666 14.24794
1666.5 14.38521
1667 14.175364
1667.5 14.285593
1668 14.239059
1668.5 14.196882
1669 14.255545
1669.5 14.014226
1670 14.201248
1670.5 14.528276
1671 14.324152
1671.5 14.430547
1672 14.338434
1672.5 14.287731
1673 14.417179
1673.5 14.406918
1674 14.483823
1674.5 14.21112
1675 14.582123
1675.5 14.36853
1676 14.627154
1676.5 14.481579
1677 14.552698
1677.5 14.370494
1678 14.559749
1678.5 14.462967
1679 14.406833
1679.5 14.59291
1680 14.424151
1680.5 14.633061
1681 14.518619
1681.5 14.560334
1682 14.595187
1682.5 14.732444
1683 14.666681
1683.5 14.440371
1684 14.606203
1684.5 14.443515
1685 14.658585
1685.5 14.431429
1686 14.672534
1686.5 14.450125
1687 14.74527
1687.5 14.60959
1688 14.552888
1688.5 14.563407
1689 14.553298
1689.5 14.655454
1690 14.606355
1690.5 14.757229
1691 14.594321
1691.5 14.771862
1692 14.691581
1692.5 14.755908
1693 14.698446
1693.5 14.67863
1694 14.706871
1694.5 14.517471
1695 14.828162
1695.5 14.506622
1696 14.720468
1696.5 14.599305
1697 14.721407
1697.5 14.63524
1698 14.71068
1698.5 14.741912
1699 14.685638
1699.5 14.799693
1700 14.523809
1700.5 14.938834
1701 14.826104
1701.5 14.976227
1702 14.789918
1702.5 14.824802
1703 14.768453
1703.5 14.746685
1704 14.851528
1704.5 14.712869
1705 14.88381
1705.5 14.744245
1706 14.891332
1706.5 14.736968
1707 14.848827
1707.5 14.819886
1708 14.906169
1708.5 14.787418
1709 14.694141
1709.5 14.9546
1710 14.883287
1710.5 14.997213
1711 14.80284
1711.5 14.996558
1712 14.849249
1712.5 14.990968
1713 14.911468
1713.5 15.019952
1714 14.991048
1714.5 14.987718
1715 15.14855
1715.5 15.022202
1716 15.19935
1716.5 15.114531
1717 15.177384
1717.5 14.89106
1718 14.990011
1718.5 15.018944
1719 15.039307
1719.5 15.002395
1720 14.916758
1720.5 15.133175
1721 14.960144
1721.5 15.203276
1722 14.973697
1722.5 15.187435
1723 15.075943
1723.5 15.219708
1724 15.097943
1724.5 15.080203
1725 15.183297
1725.5 15.065016
1726 15.238249
1726.5 15.14641
1727 15.221418
1727.5 15.050298
1728 15.263118
1728.5 15.211049
1729 15.177794
1729.5 15.288617
1730 15.1683
1730.5 15.285382
1731 15.015592
1731.5 15.294515
1732 15.097481
1732.5 15.388042
1733 15.260322
1733.5 15.340698
1734 15.275751
1734.5 15.260206
1735 15.367523
1735.5 15.188119
1736 15.405193
1736.5 15.1829
1737 15.360999
1737.5 15.258716
1738 15.300414
1738.5 15.297382
1739 15.372746
1739.5 15.390988
1740 15.277892
1740.5 15.372179
1741 15.206671
1741.5 15.467659
1742 15.273629
1742.5 15.424728
1743 15.173328
1743.5 15.3844
1744 15.404417
1744.5 15.371257
1745 15.446077
1745.5 15.238722
1746 15.538985
1746.5 15.373863
1747 15.46119
1747.5 15.371551
1748 15.577886
1748.5 15.436663
1749 15.529792
1749.5 15.454854
1750 15.414126
1750.5 15.633175
1751 15.455793
1751.5 15.58765
1752 15.423809
1752.5 15.654805
1753 15.483615
1753.5 15.598647
1754 15.401465
1754.5 15.495081
1755 15.58342
1755.5 15.544052
1756 15.666513
1756.5 15.446232
1757 15.724155
1757.5 15.638304
1758 15.780449
1758.5 15.642272
1759 15.67857
1759.5 15.536
1760 15.658998
1760.5 15.706068
1761 15.625671
1761.5 15.794224
1762 15.650922
1762.5 15.730695
1763 15.612186
1763.5 15.772709
1764 15.692085
1764.5 15.792556
1765 15.741085
1765.5 15.625781
1766 15.875687
1766.5 15.69912
1767 15.824549
1767.5 15.610404
1768 15.932974
1768.5 15.688336
1769 15.928313
1769.5 15.786968
1770 15.813097
1770.5 15.737675
1771 15.840323
1771.5 15.863651
1772 15.797827
1772.5 15.915124
1773 15.722041
1773.5 15.940146
1774 15.768
1774.5 15.853223
1775 15.766014
1775.5 15.848324
1776 15.906805
1776.5 15.769362
1777 15.986116
1777.5 15.777661
1778 15.983713
1778.5 15.81323
1779 16.015092
1779.5 15.848497
1780 16.012809
1780.5 16.016342
1781 15.983966
1781.5 15.979277
1782 15.927787
1782.5 16.051924
1783 15.97129
1783.5 16.124412
1784 15.993899
1784.5 16.200469
1785 16.027267
1785.5 16.011521
1786 16.092519
1786.5 16.089274
1787 16.145827
1787.5 16.00112
1788 16.185866
1788.5 15.980747
1789 16.149308
1789.5 16.005036
1790 16.167124
1790.5 16.074724
1791 16.105932
1791.5 16.216758
1792 16.076164
1792.5 16.215266
1793 15.953344
1793.5 16.319603
1794 16.222094
1794.5 16.331904
1795 16.195856
1795.5 16.328706
1796 16.265382
1796.5 16.2835
1797 16.301344
1797.5 16.210437
1798 16.333747
1798.5 16.125427
1799 16.250023
1799.5 16.126175
1800 16.367714
1800.5 16.348907
1801 16.359903
1801.5 16.306749
1802 16.21559
1802.5 16.385138
1803 16.293876
1803.5 16.310276
1804 16.019037
1804.5 16.354233
1805 16.173306
1805.5 16.54619
1806 16.416134
1806.5 16.484253
1807 16.409455
1807.5 16.347061
1808 16.385059
1808.5 16.339725
1809 16.420166
1809.5 16.171567
1810 16.495898
1810.5 16.385849
1811 16.477259
1811.5 16.488601
1812 16.571803
1812.5 16.620556
1813 16.444246
1813.5 16.556181
1814 16.229071
1814.5 16.486929
1815 16.389634
1815.5 16.71634
1816 16.596569
1816.5 16.658646
1817 16.55596
1817.5 16.432272
1818 16.508912
1818.5 16.392277
1819 16.441059
1819.5 16.247663
1820 16.654262
1820.5 16.520433
1821 16.759992
1821.5 16.734529
1822 16.82144
1822.5 16.794525
1823 16.680531
1823.5 16.741522
1824 16.482452
1824.5 16.618843
1825 16.331288
1825.5 16.661519
1826 16.806513
1826.5 16.847591
1827 16.650201
1827.5 16.604201
1828 16.658311
1828.5 16.613166
1829 16.75798
1829.5 16.431738
1830 16.739202
1830.5 16.725649
1831 16.921805
1831.5 16.809966
1832 16.902153
1832.5 16.857277
1833 16.846517
1833.5 16.836637
1834 16.595924
1834.5 16.77801
1835 16.707093
1835.5 16.800722
1836 16.728115
1836.5 16.895893
1837 16.86963
1837.5 17.070678
1838 16.903983
1838.5 16.70254
1839 16.904326
1839.5 16.800343
1840 16.864111
1840.5 16.572522
1841 16.869442
1841.5 16.839005
1842 17.169116
1842.5 17.12314
1843 17.102917
1843.5 17.010841
1844 17.029686
1844.5 17.045444
1845 16.880466
1845.5 16.934682
1846 16.696402
1846.5 16.903546
1847 16.836663
1847.5 17.019647
1848 17.084928
1848.5 17.185833
1849 17.161462
1849.5 16.981123
1850 17.318483
1850.5 17.0412
1851 17.194825
1851.5 16.783175
1852 16.993602
1852.5 16.83377
1853 17.142023
1853.5 17.256343
1854 17.257641
1854.5 17.213885
1855 16.928527
1855.5 17.110492
1856 17.01518
1856.5 17.401059
1857 17.333314
1857.5 17.31185
1858 17.061427
1858.5 16.934817
1859 17.135634
1859.5 17.267773
1860 17.482787
1860.5 17.28567
1861 17.451194
1861.5 17.04078
1862 17.331864
1862.5 17.168805
1863 17.207481
1863.5 17.206702
1864 17.384301
1864.5 17.497951
1865 17.348823
1865.5 17.428125
1866 17.02127
1866.5 17.326069
1867 17.14627
1867.5 17.470008
1868 17.445546
1868.5 17.509246
1869 17.329594
1869.5 17.130917
1870 17.361747
1870.5 17.288505
1871 17.560518
1871.5 17.203486
1872 17.364421
1872.5 17.185912
1873 17.505722
1873.5 17.496084
1874 17.57374
1874.5 17.413187
1875 17.17983
1875.5 17.39523
1876 17.304574
1876.5 17.631723
1877 17.540693
1877.5 17.727794
1878 17.524961
1878.5 17.46659
1879 17.360581
1879.5 17.405175
1880 17.631869
1880.5 17.573911
1881 17.656305
1881.5 17.49651
1882 17.618117
1882.5 17.396915
1883 17.466873
1883.5 17.493904
1884 17.615715
1884.5 17.763886
1885 17.642695
1885.5 17.628507
1886 17.535757
1886.5 17.85351
1887 17.629997
1887.5 17.779869
1888 17.489533
1888.5 17.642125
1889 17.473507
1889.5 17.696811
1890 17.812259
1890.5 17.703325
1891 17.868124
1891.5 17.626955
1892 17.776287
1892.5 17.649835
1893 17.869703
1893.5 17.903605
1894 17.908823
1894.5 17.807777
1895 17.679484
1895.5 17.853698
1896 17.712238
1896.5 17.836104
1897 17.556013
1897.5 17.837395
1898 17.512198
1898.5 17.709191
1899 17.756166
1899.5 17.935166
1900 18.048461
1900.5 18.001434
1901 17.922823
1901.5 17.793843
1902 17.989403
1902.5 17.810608
1903 17.986371
1903.5 17.827086
1904 17.765844
1904.5 17.779855
1905 17.846414
1905.5 18.060024
1906 17.877287
1906.5 18.170936
1907 18.019147
1907.5 18.247914
1908 17.827989
1908.5 18.027116
1909 17.841035
1909.5 17.928936
1910 17.960794
1910.5 17.841583
1911 17.999251
1911.5 17.752118
1912 18.056312
1912.5 17.923872
1913 18.231969
1913.5 18.043649
1914 18.272641
1914.5 18.146019
1915 18.138815
1915.5 18.175274
1916 18.153445
1916.5 18.314779
1917 18.060586
1917.5 18.203056
1918 17.924336
1918.5 18.084612
1919 17.901053
1919.5 18.085289
1920 18.110429
1920.5 18.182409
1921 18.408172
1921.5 18.20766
1922 18.293282
1922.5 18.046941
1923 18.232632
1923.5 18.139622
1924 18.255201
1924.5 18.120746
1925 18.144073
1925.5 18.165015
1926 18.108965
1926.5 18.294401
1927 18.181922
1927.5 18.345368
1928 18.259063
1928.5 18.449184
1929 18.23656
1929.5 18.339463
1930 18.354936
1930.5 18.348649
1931 18.332063
1931.5 18.212642
1932 18.470265
1932.5 18.324177
1933 18.353209
1933.5 18.240765
1934 18.502937
1934.5 18.391126
1935 18.450803
1935.5 18.32608
1936 18.391611
1936.5 18.47146
1937 18.41639
1937.5 18.534908
1938 18.418802
1938.5 18.541428
1939 18.368414
1939.5 18.545194
1940 18.476406
1940.5 18.441096
1941 18.593617
1941.5 18.505666
1942 18.607198
1942.5 18.338379
1943 18.632613
1943.5 18.325207
1944 18.654053
1944.5 18.458517
1945 18.621676
1945.5 18.528642
1946 18.644285
1946.5 18.585484
1947 18.520159
1947.5 18.644628
1948 18.422496
1948.5 18.751968
1949 18.584654
1949.5 18.739796
1950 18.591945
1950.5 18.729889
1951 18.692802
1951.5 18.574604
1952 18.762279
1952.5 18.576536
1953 18.74454
1953.5 18.490262
1954 18.800491
1954.5 18.564685
1955 18.839164
1955.5 18.680787
1956 18.817146
1956.5 18.729012
1957 18.602251
1957.5 18.829411
1958 18.741444
1958.5 18.847455
1959 18.715538
1959.5 18.954708
1960 18.825293
1960.5 18.829621
1961 18.782598
1961.5 18.827215
1962 18.940619
1962.5 18.753424
1963 18.932191
1963.5 18.706301
1964 18.988581
1964.5 18.799938
1965 19.033636
1965.5 18.833816
1966 18.88064
1966.5 18.928641
1967 18.852039
1967.5 18.909918
1968 18.640834
1968.5 19.07482
1969 18.964364
1969.5 19.042434
1970 18.913034
1970.5 19.032033
1971 18.940702
1971.5 19.041015
1972 19.03179
1972.5 18.891881
1973 19.15195
1973.5 19.01193
1974 19.121328
1974.5 18.950486
1975 19.056934
1975.5 18.989708
1976 19.115448
1976.5 19.056664
1977 18.946758
1977.5 19.188879
1978 19.15172
1978.5 19.170982
1979 18.956538
1979.5 19.237137
1980 18.978345
1980.5 19.208217
1981 19.051358
1981.5 19.201685
1982 19.138178
1982.5 19.220938
1983 19.181034
1983.5 19.112597
1984 19.340116
1984.5 19.117491
1985 19.237895
1985.5 19.185564
1986 19.303808
1986.5 19.249959
1987 19.247068
1987.5 19.232905
1988 19.182271
1988.5 19.38408
1989 19.126856
1989.5 19.383191
1990 19.096784
1990.5 19.361849
1991 19.230045
1991.5 19.462743
1992 19.326663
1992.5 19.314992
1993 19.398114
1993.5 19.306403
1994 19.492809
1994.5 19.339839
1995 19.529422
1995.5 19.299932
1996 19.473596
1996.5 19.358918
1997 19.426809
1997.5 19.480176
1998 19.477174
1998.5 19.570747
1999 19.323637
1999.5 19.591898
2000 19.256103
2000.5 19.518818
2001 19.41177
2001.5 19.570932
2002 19.420083
2002.5 19.54834
2003 19.547182
2003.5 19.533825
2004 19.639759
2004.5 19.35683
2005 19.690332
2005.5 19.562888
2006 19.679482
2006.5 19.54302
2007 19.614993
2007.5 19.611368
2008 19.617224
2008.5 19.729258
2009 19.620681
2009.5 19.823861
2010 19.613053
2010.5 19.767791
2011 19.465801
2011.5 19.718237
2012 19.62216
2012.5 19.675897
2013 19.649878
2013.5 19.524382
2014 19.731741
2014.5 19.635333
2015 19.750243
2015.5 19.497669
2016 19.806387
2016.5 19.657145
2017 19.748095
2017.5 19.738185
2018 19.771536
2018.5 19.855516
2019 19.825983
2019.5 19.990218
2020 19.752541
2020.5 20.015991
2021 19.83376
2021.5 20.017181
2022 19.68509
2022.5 19.748697
2023 19.82896
2023.5 19.840977
2024 19.860946
2024.5 19.716908
2025 19.985402
2025.5 19.764528
2026 20.00775
2026.5 19.785355
2027 20.078264
2027.5 19.885281
2028 19.956774
2028.5 19.936052
2029 19.900911
2029.5 20.080426
2030 19.926526
2030.5 20.069097
2031 19.950071
2031.5 20.154546
2032 20.043302
2032.5 20.041944
2033 19.936103
2033.5 19.984481
2034 20.134999
2034.5 19.965579
2035 20.070571
2035.5 19.899973
2036 20.219502
2036.5 19.982252
2037 20.278519
2037.5 20.07155
2038 20.093901
2038.5 20.045602
2039 20.115241
2039.5 20.156643
2040 20.144072
2040.5 20.264539
2041 20.07221
2041.5 20.329918
2042 20.136331
2042.5 20.21687
2043 20.180823
2043.5 20.259152
2044 20.26304
2044.5 20.163919
2045 20.360434
2045.5 20.046639
2046 20.318939
2046.5 20.024732
2047 20.230842
2047.5 20.111409
2048 20.332989
2048.5 20.202838
2049 20.340154
2049.5 20.431551
2050 20.270975
2050.5 20.516071
2051 20.222528
2051.5 20.35116
2052 20.247424
2052.5 20.469946
2053 20.278184
2053.5 20.38167
2054 20.370691
2054.5 20.39952
2055 20.553897
2055.5 20.371762
2056 20.490618
2056.5 20.259283
2057 20.510127
2057.5 20.329556
2058 20.470355
2058.5 20.318519
2059 20.353639
2059.5 20.526956
2060 20.538005
2060.5 20.505616
2061 20.248745
2061.5 20.581532
2062 20.477638
2062.5 20.53473
2063 20.464586
2063.5 20.739689
2064 20.643418
2064.5 20.583476
2065 20.613685
2065.5 20.473099
2066 20.649944
2066.5 20.467524
2067 20.677464
2067.5 20.499437
2068 20.71318
2068.5 20.67892
2069 20.714982
2069.5 20.58908
2070 20.489489
2070.5 20.72442
2071 20.559916
2071.5 20.731926
2072 20.550293
2072.5 20.821029
2073 20.67294
2073.5 20.821221
2074 20.682435
2074.5 20.730709
2075 20.736378
2075.5 20.768306
2076 20.799898
2076.5 20.732935
2077 20.934996
2077.5 20.762414
2078 20.822766
2078.5 20.783821
2079 20.71853
2079.5 20.845753
2080 20.877796
2080.5 20.910813
2081 20.712104
2081.5 21.00565
2082 20.699278
2082.5 20.892389
2083 20.653529
2083.5 20.898922
2084 20.818752
2084.5 21.02551
2085 20.906202
2085.5 20.791706
2086 21.053509
2086.5 20.917712
2087 21.077716
2087.5 20.843868
2088 21.01606
2088.5 20.89255
2089 21.013352
2089.5 21.066967
2090 20.92962
2090.5 21.099533
2091 21.005788
2091.5 21.209283
2092 20.892222
2092.5 21.13089
2093 20.766622
2093.5 21.092996
2094 20.989868
2094.5 21.109185
2095 21.09911
2095.5 21.048336
2096 21.242991
2096.5 20.934327
2097 21.201873
2097.5 20.997739
2098 21.201023
2098.5 21.120158
2099 21.208467
2099.5 21.116938
2100 21.241547
2100.5 21.338661
2101 20.999081
2101.5 21.2478
2102 21.048236
2102.5 21.312277
2103 21.082895
2103.5 21.366827
2104 21.178854
2104.5 21.291405
2105 21.269736
2105.5 21.227597
2106 21.315528
2106.5 21.042383
2107 21.365255
2107.5 21.310762
2108 21.443267
2108.5 21.279217
2109 21.449573
2109.5 21.328564
2110 21.356808
2110.5 21.353553
2111 21.288122
2111.5 21.566038
2112 21.380408
2112.5 21.590056
2113 21.268836
2113.5 21.416155
2114 21.372257
2114.5 21.479499
2115 21.36638
2115.5 21.302933
2116 21.48533
2116.5 21.482573
2117 21.522929
2117.5 21.384569
2118 21.612093
2118.5 21.441494
2119 21.559274
2119.5 21.355602
2120 21.548697
2120.5 21.505256
2121 21.509476
2121.5 21.588574
2122 21.493042
2122.5 21.712406
2123 21.537586
2123.5 21.772003
2124 21.488395
2124.5 21.561657
2125 21.591572
2125.5 21.573715
2126 21.54185
2126.5 21.494198
2127 21.71662
2127.5 21.603744
2128 21.770489
2128.5 21.581058
2129 21.716776
2129.5 21.5139
2130 21.733747
2130.5 21.645331
2131 21.663429
2131.5 21.777689
2132 21.690229
2132.5 21.881932
2133 21.707031
2133.5 21.915708
2134 21.709852
2134.5 21.826276
2135 21.716283
2135.5 21.734971
2136 21.833415
2136.5 21.693678
2137 21.914144
2137.5 21.712291
2138 21.983679
2138.5 21.62452
2139 21.995591
2139.5 21.896991
2140 21.954906
2140.5 21.810497
2141 21.825516
2141.5 21.847169
2142 21.829081
2142.5 21.991922
2143 21.77043
2143.5 22.045708
2144 21.976919
2144.5 22.057179
2145 21.9943
2145.5 22.001629
2146 22.019176
2146.5 21.87462
2147 22.056623
2147.5 21.878378
2148 22.163726
2148.5 21.925308
2149 22.150613
2149.5 22.005036
2150 22.172739
2150.5 22.056885
2151 22.0185
2151.5 22.04376
2152 21.889599
2152.5 22.140931
2153 22.056969
2153.5 22.206384
2154 22.032118
2154.5 22.217101
2155 22.081468
2155.5 22.169827
2156 22.087884
2156.5 22.110118
2157 22.225834
2157.5 22.141483
2158 22.259079
2158.5 22.127135
2159 22.396713
2159.5 22.15744
2160 22.318687
2160.5 22.248968
2161 22.150603
2161.5 22.150704
2162 22.238298
2162.5 22.281036
2163 22.081283
2163.5 22.381142
2164 22.301804
2164.5 22.456333
2165 22.16479
2165.5 22.38818
2166 22.263482
2166.5 22.330901
2167 22.406669
2167.5 22.300041
2168 22.486673
2168.5 22.381289
2169 22.491874
2169.5 22.295743
2170 22.478779
2170.5 22.341581
2171 22.445366
2171.5 22.355495
2172 22.278284
2172.5 22.469559
2173 22.376768
2173.5 22.558135
2174 22.228034
2174.5 22.594295
2175 22.422203
2175.5 22.631499
2176 22.574259
2176.5 22.639942
2177 22.5655
2177.5 22.491218
2178 22.61453
2178.5 22.380334
2179 22.631432
2179.5 22.45657
2180 22.628923
2180.5 22.533832
2181 22.65698
2181.5 22.63732
2182 22.687754
2182.5 22.715846
2183 22.582851
2183.5 22.80173
2184 22.458678
2184.5 22.753952
2185 22.418201
2185.5 22.708711
2186 22.597323
2186.5 22.702377
2187 22.742751
2187.5 22.736472
2188 22.843423
2188.5 22.717394
2189 22.912484
2189.5 22.739404
2190 22.992617
2190.5 22.675577
2191 22.851306
2191.5 22.823115
2192 22.749536
2192.5 22.831129
2193 22.772169
2193.5 22.922647
2194 22.640653
2194.5 22.932045
2195 22.717643
2195.5 22.954869
2196 22.881037
2196.5 23.026347
2197 22.936222
2197.5 22.788702
2198 22.915244
2198.5 22.844444
2199 22.991925
2199.5 22.758935
2200 23.006484
2200.5 22.947317
2201 23.047966
2201.5 22.944361
2202 23.012957
2202.5 23.146334
2203 23.036407
2203.5 23.178203
2204 22.972509
2204.5 23.188674
2205 22.911623
2205.5 23.100318
2206 22.901119
2206.5 23.020735
2207 23.078507
2207.5 23.081768
2208 23.115133
2208.5 22.953665
2209 23.271565
2209.5 23.152606
2210 23.248702
2210.5 22.983012
2211 23.194799
2211.5 23.065034
2212 23.171706
2212.5 23.189941
2213 23.193997
2213.5 23.286726
2214 23.181333
2214.5 23.357221
2215 23.144403
2215.5 23.313917
2216 23.301616
2216.5 23.371975
2217 23.254967
2217.5 23.14039
2218 23.30572
2218.5 23.268883
2219 23.337974
2219.5 23.033834
2220 23.364981
2220.5 23.192224
2221 23.417184
2221.5 23.289649
2222 23.442329
2222.5 23.475637
2223 23.557453
2223.5 23.535343
2224 23.350996
2224.5 23.539557
2225 23.332739
2225.5 23.527434
2226 23.341233
2226.5 23.464334
2227 23.433842
2227.5 23.537298
2228 23.492385
2228.5 23.433253
2229 23.622675
2229.5 23.480329
2230 23.634845
2230.5 23.310181
2231 23.558828
2231.5 23.343761
2232 23.553324
2232.5 23.566541
2233 23.513755
2233.5 23.5265
2234 23.4695
2234.5 23.675634
2235 23.543875
2235.5 23.705304
2236 23.581684
2236.5 23.761626
2237 23.743622
2237.5 23.759146
2238 23.687431
2238.5 23.613964
2239 23.724279
2239.5 23.49558
2240 23.826529
2240.5 23.464878
2241 23.753282
2241.5 23.542717
2242 23.771912
2242.5 23.663695
2243 23.77703
2243.5 23.861267
2244 23.7831
2244.5 23.913322
2245 23.573981
2245.5 23.870912
2246 23.678765
2246.5 23.884761
2247 23.719473
2247.5 23.808157
2248 23.830178
2248.5 23.743595
2249 23.92341
2249.5 23.761591
2250 24.001139
2250.5 23.742411
2251 23.875783
2251.5 23.63534
2252 23.835626
2252.5 23.808381
2253 23.816906
2253.5 23.850471
2254 23.703694
2254.5 24.019776
2255 23.893315
2255.5 24.093741
2256 23.859891
2256.5 24.075499
2257 23.839799
2257.5 23.978041
2258 23.939207
2258.5 23.892355
2259 24.084312
2259.5 23.8977
2260 24.123946
2260.5 23.910919
2261 24.129325
2261.5 24.001116
2262 24.156554
2262.5 24.10567
2263 23.962225
2263.5 23.983589
2264 23.982251
2264.5 24.080302
2265 23.839827
2265.5 24.170195
2266 23.977914
2266.5 24.126559
2267 23.929395
2267.5 24.213462
2268 24.15358
2268.5 24.200463
2269 24.194197
2269.5 24.028741
2270 24.200916
2270.5 24.047093
2271 24.223404
2271.5 24.036814
2272 24.241321
2272.5 24.111663
2273 24.222288
2273.5 24.182451
2274 24.108666
2274.5 24.308032
2275 24.188356
2275.5 24.367289
2276 24.139161
2276.5 24.332646
2277 24.107942
2277.5 24.311998
2278 24.198163
2278.5 24.202964
2279 24.30751
2279.5 24.270566
2280 24.390437
2280.5 24.238847
2281 24.411727
2281.5 24.200383
2282 24.424534
2282.5 24.335225
2283 24.416083
2283.5 24.494937
2284 24.363582
2284.5 24.396391
2285 24.2385
2285.5 24.504098
2286 24.212709
2286.5 24.47567
2287 24.230501
2287.5 24.491476
2288 24.360719
2288.5 24.493258
2289 24.473786
2289.5 24.476095
2290 24.650107
2290.5 24.431789
2291 24.640368
2291.5 24.370098
2292 24.591641
2292.5 24.362971
2293 24.595834
2293.5 24.507862
2294 24.432264
2294.5 24.579369
2295 24.452643
2295.5 24.627793
2296 24.456501
2296.5 24.643417
2297 24.445787
2297.5 24.654835
2298 24.64301
2298.5 24.711123
2299 24.717584
2299.5 24.572384
2300 24.707012
2300.5 24.568562
2301 24.728091
2301.5 24.508181
2302 24.815334
2302.5 24.644975
2303 24.665554
2303.5 24.665007
2304 24.622066
2304.5 24.822469
2305 24.632412
2305.5 24.909881
2306 24.66716
2306.5 24.942493
2307 24.698213
2307.5 24.91823
2308 24.71308
2308.5 24.74961
2309 24.845511
2309.5 24.769391
2310 24.867341
2310.5 24.552046
2311 24.965402
2311.5 24.81133
2312 24.920091
2312.5 24.790479
2313 24.910291
2313.5 24.860638
2314 24.910924
2314.5 25.022104
2315 24.970059
2315.5 25.118321
2316 24.97045
2316.5 25.067616
2317 24.862397
2317.5 24.960986
2318 24.915129
2318.5 24.936108
2319 24.961902
2319.5 24.852285
2320 25.109741
2320.5 25.007275
2321 25.097421
2321.5 24.850622
2322 25.150952
2322.5 24.991414
2323 25.135937
2323.5 25.02003
2324 25.1421
2324.5 25.179684
2325 25.214726
2325.5 25.257713
2326 25.153473
2326.5 25.347185
2327 25.134072
2327.5 25.294307
2328 25.145483
2328.5 25.110608
2329 25.188798
2329.5 25.239038
2330 25.249371
2330.5 24.985453
2331 25.336567
2331.5 25.084603
2332 25.358161
2332.5 25.108272
2333 25.329456
2333.5 25.241205
2334 25.435638
2334.5 25.342098
2335 25.312936
2335.5 25.451896
2336 25.332302
2336.5 25.597897
2337 25.326568
2337.5 25.41624
2338 25.298557
2338.5 25.448847
2339 25.35595
2339.5 25.348613
2340 25.440279
2340.5 25.330114
2341 25.535557
2341.5 25.244725
2342 25.524619
2342.5 25.241235
2343 25.525138
2343.5 25.397837
2344 25.579566
2344.5 25.420764
2345 25.445491
2345.5 25.687596
2346 25.532931
2346.5 25.699699
2347 25.375539
2347.5 25.669095
2348 25.516033
2348.5 25.61948
2349 25.553903
2349.5 25.622889
2350 25.664565
2350.5 25.526932
2351 25.709078
2351.5 25.490478
2352 25.763816
2352.5 25.538108
2353 25.770268
2353.5 25.571677
2354 25.738257
2354.5 25.763282
2355 25.732395
2355.5 25.770742
2356 25.399113
2356.5 25.842083
2357 25.69524
2357.5 25.852939
2358 25.628778
2358.5 25.818267
2359 25.753281
2359.5 25.769421
2360 25.771508
2360.5 25.746009
2361 25.949284
2361.5 25.786799
2362 25.95897
2362.5 25.762886
2363 25.985828
2363.5 25.863412
2364 25.935531
2364.5 25.743318
2365 25.746647
2365.5 25.9271
2366 25.898874
2366.5 25.940946
2367 25.673234
2367.5 25.919703
2368 25.839353
2368.5 26.092201
2369 25.846955
2369.5 26.064569
2370 25.996289
2370.5 26.035699
2371 26.128685
2371.5 26.087111
2372 26.154342
2372.5 25.899503
2373 26.13759
2373.5 25.958529
2374 26.069424
2374.5 26.015204
2375 26.086795
2375.5 26.044986
2376 25.995156
2376.5 26.140651
2377 25.958994
2377.5 26.275817
2378 25.841576
2378.5 26.244593
2379 26.090297
2379.5 26.287168
2380 26.204839
2380.5 26.222485
2381 26.164624
2381.5 26.141852
2382 26.233676
2382.5 26.162142
2383 26.284531
2383.5 26.140404
2384 26.328564
2384.5 26.219267
2385 26.273727
2385.5 26.289022
2386 26.322323
2386.5 26.418871
2387 26.238784
2387.5 26.402587
2388 26.167667
2388.5 26.423711
2389 26.138046
2389.5 26.368511
2390 26.22112
2390.5 26.278538
2391 26.415959
2391.5 26.324958
2392 26.460621
2392.5 26.301196
2393 26.526695
2393.5 26.42265
2394 26.673272
2394.5 26.486862
2395 26.540107
2395.5 26.450047
2396 26.362666
2396.5 26.532215
2397 26.359951
2397.5 26.633057
2398 26.353955
2398.5 26.586264
2399 26.317221
2399.5 26.57662
2400 26.516783
2400.5 26.635611
2401 26.630434
2401.5 26.55558
2402 26.779538
2402.5 26.569945
2403 26.667127
2403.5 26.496708
2404 26.760885
2404.5 26.510578
2405 26.637569
2405.5 26.594117
2406 26.600698
2406.5 26.749778
2407 26.535812
2407.5 26.86269
2408 26.592788
2408.5 26.839277
2409 26.642236
2409.5 26.864105
2410 26.695406
2410.5 26.843789
2411 26.789519
2411.5 26.694313
2412 26.732749
2412.5 26.538503
2413 26.890713
2413.5 26.750481
2414 26.873654
2414.5 26.722601
2415 27.028382
2415.5 26.89673
2416 26.962867
2416.5 26.900211
2417 26.79047
2417.5 26.98499
2418 26.891243
2418.5 26.992556
2419 26.82288
2419.5 26.922786
2420 26.848546
2420.5 26.976228
2421 26.862168
2421.5 26.851737
2422 27.000427
2422.5 26.929423
2423 27.118301
2423.5 26.800713
2424 27.133518
2424.5 26.839826
2425 26.992795
2425.5 26.956555
2426 27.047613
2426.5 27.047703
2427 27.012807
2427.5 27.046493
2428 26.991713
2428.5 27.249101
2429 26.995003
2429.5 27.271688
2430 27.10872
2430.5 27.252886
2431 27.117184
2431.5 27.153191
2432 27.081937
2432.5 27.003509
2433 27.270159
2433.5 27.061915
2434 27.192643
2434.5 26.93671
2435 27.271411
2435.5 27.09181
2436 27.29938
2436.5 27.277118
2437 27.220324
2437.5 27.271968
2438 27.135956
2438.5 27.367222
2439 27.16397
2439.5 27.462795
2440 27.174565
2440.5 27.448484
2441 27.304339
2441.5 27.34127
2442 27.310783
2442.5 27.217114
2443 27.372703
2443.5 27.211949
2444 27.46444
2444.5 27.268711
2445 27.532291
2445.5 27.135336
2446 27.424186
2446.5 27.31272
2447 27.361295
2447.5 27.477074
2448 27.303597
2448.5 27.560353
2449 27.323848
2449.5 27.664033
2450 27.406999
2450.5 27.508307
2451 27.373448
2451.5 27.503368
2452 27.516299
2452.5 27.376765
2453 27.606955
2453.5 27.369416
2454 27.615792
2454.5 27.418995
2455 27.627364
2455.5 27.390817
2456 27.540761
2456.5 27.581096
2457 27.574518
2457.5 27.588773
2458 27.385223
2458.5 27.62095
2459 27.477467
2459.5 27.66948
2460 27.467754
2460.5 27.77741
2461 27.621764
2461.5 27.715281
2462 27.599916
2462.5 27.654457
2463 27.769548
2463.5 27.618
2464 27.82332
2464.5 27.626872
2465 27.843487
2465.5 27.574667
2466 27.750602
2466.5 27.612329
2467 27.697557
2467.5 27.809915
2468 27.78286
2468.5 27.833876
2469 27.583921
2469.5 27.804613
2470 27.686444
2470.5 27.887279
2471 27.702731
2471.5 27.951467
2472 27.860969
2472.5 28.008452
2473 27.942291
2473.5 27.9131
2474 28.081265
2474.5 27.848145
2475 27.992359
2475.5 27.82253
2476 27.994856
2476.5 27.921909
2477 28.024974
2477.5 27.994677
2478 27.93552
2478.5 28.135067
2479 27.945322
2479.5 28.067487
2480 27.759531
2480.5 28.126073
2481 27.883822
2481.5 28.189489
2482 28.10384
2482.5 28.040531
2483 28.036362
2483.5 28.004277
2484 28.106526
2484.5 27.998152
2485 28.209773
2485.5 28.006756
2486 28.240883
2486.5 28.097954
2487 28.134781
2487.5 28.158721
2488 28.202951
2488.5 28.244036
2489 28.052387
2489.5 28.352359
2490 28.060374
2490.5 28.340369
2491 28.086957
2491.5 28.251332
2492 28.097102
2492.5 28.236404
2493 28.283092
2493.5 28.184021
2494 28.37469
2494.5 28.198001
2495 28.54251
2495.5 28.307322
2496 28.480908
2496.5 28.275314
2497 28.474033
2497.5 28.361642
2498 28.334901
2498.5 28.49392
2499 28.310651
2499.5 28.532985
2500 28.279066
2500.5 28.441983
2501 28.267023
2501.5 28.546494
2502 28.342676
2502.5 28.417391
2503 28.415501
2503.5 28.3216
2504 28.567412
2504.5 28.459632
2505 28.608292
2505.5 28.367978
2506 28.665969
2506.5 28.480598
2507 28.609204
2507.5 28.550997
2508 28.548232
2508.5 28.610736
2509 28.499717
2509.5 28.6971
2510 28.529114
2510.5 28.782198
2511 28.469503
2511.5 28.602594
2512 28.515199
2512.5 28.556198
2513 28.627199
2513.5 28.529572
2514 28.582585
2514.5 28.363279
2515 28.74631
2515.5 28.718716
2516 28.797778
2516.5 28.669521
2517 28.900489
2517.5 28.775713
2518 28.842723
2518.5 28.863987
2519 28.777185
2519.5 28.91286
2520 28.737456
2520.5 28.954041
2521 28.674635
2521.5 28.929138
2522 28.831804
2522.5 28.884298
2523 28.770554
2523.5 28.673056
2524 28.946662
2524.5 28.822884
2525 28.941411
2525.5 28.633419
2526 28.963834
2526.5 28.767797
2527 28.975984
2527.5 28.773785
2528 28.95703
2528.5 28.889778
2529 28.819141
2529.5 28.885633
2530 28.770936
2530.5 28.966805
2531 28.757247
2531.5 29.09027
2532 28.914884
2532.5 29.039979
2533 29.117501
2533.5 29.051739
2534 29.033744
2534.5 28.947616
2535 29.15563
2535.5 28.95171
2536 29.23086
2536.5 28.952548
2537 29.264909
2537.5 29.164335
2538 29.269943
2538.5 29.212907
2539 29.209095
2539.5 29.181024
2540 28.989351
2540.5 29.184714
2541 29.018685
2541.5 29.219577
2542 28.960332
2542.5 29.262242
2543 29.257849
2543.5 29.196107
2544 29.345542
2544.5 29.273358
2545 29.391649
2545.5 29.103091
2546 29.347366
2546.5 29.073435
2547 29.325309
2547.5 29.060927
2548 29.248425
2548.5 29.134986
2549 29.184544
2549.5 29.335827
2550 29.295051
2550.5 29.446802
2551 29.247391
2551.5 29.439557
2552 29.347855
2552.5 29.490539
2553 29.424778
2553.5 29.560387
2554 29.562858
2554.5 29.549959
2555 29.757503
2555.5 29.492801
2556 29.727343
2556.5 29.424313
2557 29.60929
2557.5 29.362169
2558 29.42771
2558.5 29.476035
2559 29.365185
2559.5 29.31276
2560 29.132336
2560.5 29.452744
2561 29.297557
2561.5 29.538414
2562 29.353601
2562.5 29.677919
2563 29.507929
2563.5 29.674724
2564 29.689032
2564.5 29.595807
2565 29.833618
2565.5 29.753312
2566 29.761058
2566.5 29.544091
2567 29.693827
2567.5 29.599434
2568 29.76675
2568.5 29.576477
2569 29.564831
2569.5 29.686144
2570 29.642656
2570.5 29.691592
2571 29.472294
2571.5 29.655352
2572 29.488388
2572.5 29.731619
2573 29.643586
2573.5 29.840109
2574 29.787338
2574.5 29.872981
2575 29.905462
2575.5 29.805791
2576 29.977378
2576.5 29.868883
2577 30.115506
2577.5 29.865873
2578 29.913577
2578.5 29.810694
2579 29.914692
2579.5 29.822758
2580 29.73946
2580.5 29.944104
2581 29.772297
2581.5 29.943979
2582 29.576772
2582.5 29.886612
2583 29.672101
2583.5 29.964343
2584 29.912978
2584.5 29.96864
2585 30.024099
2585.5 29.924306
2586 30.099806
2586.5 30.011767
2587 30.227062
2587.5 30.039552
2588 30.38457
2588.5 30.099478
2589 30.104879
2589.5 30.020168
2590 30.071792
2590.5 30.108607
2591 29.856974
2591.5 30.056542
2592 29.852483
2592.5 30.078465
2593 29.858893
2593.5 30.116692
2594 30.01723
2594.5 30.17633
2595 30.067059
2595.5 30.117926
2596 30.270886
2596.5 30.092338
2597 30.400562
2597.5 30.406544
2598 30.572322
2598.5 30.271992
2599 30.379376
2599.5 30.31615
2600 30.199808
2600.5 30.23504
2601 30.155104
2601.5 30.390611
2602 30.064505
2602.5 30.334541
2603 30.017412
2603.5 30.212885
2604 30.126819
2604.5 30.338344
2605 30.263495
2605.5 30.169401
2606 30.420458
2606.5 30.282897
2607 30.485055
2607.5 30.255821
2608 30.649891
2608.5 30.479914
2609 30.621603
2609.5 30.555829
2610 30.738273
2610.5 30.580077
2611 30.432904
2611.5 30.622336
2612 30.401593
2612.5 30.621931
2613 30.480289
2613.5 30.598563
2614 30.402794
2614.5 30.448458
2615 30.354118
2615.5 30.326787
2616 30.371648
2616.5 30.333897
2617 30.763304
2617.5 30.575556
2618 30.67424
2618.5 30.550849
2619 30.766195
2619.5 30.691674
2620 30.820143
2620.5 30.630785
2621 30.730769
2621.5 30.772489
2622 30.843431
2622.5 30.760628
2623 30.842996
2623.5 30.625102
2624 30.88159
2624.5 30.607793
2625 30.784631
2625.5 30.563569
2626 30.606818
2626.5 30.685645
2627 30.618364
2627.5 30.617219
2628 30.374062
2628.5 30.678439
2629 30.603504
2629.5 30.840838
2630 30.637777
2630.5 30.826321
2631 30.70935
2631.5 30.790097
2632 30.722681
2632.5 30.805176
2633 31.026852
2633.5 30.952063
2634 31.085241
2634.5 30.889171
2635 31.150541
2635.5 30.950889
2636 31.220108
2636.5 31.073722
2637 30.982906
2637.5 31.023785
2638 30.99851
2638.5 31.004408
2639 30.799586
2639.5 31.093746
2640 30.841529
2640.5 31.011418
2641 30.8557
2641.5 31.071097
2642 30.989343
2642.5 31.059444
2643 31.11603
2643.5 31.044319
2644 31.223881
2644.5 31.090239
2645 31.313869
2645.5 31.190223
2646 31.320289
2646.5 31.327242
2647 31.307521
2647.5 31.262177
2648 30.985054
2648.5 31.28449
2649 31.11122
2649.5 31.272066
2650 30.979469
2650.5 31.207755
2651 31.007466
2651.5 31.231371
2652 31.245542
2652.5 31.354862
2653 31.357569
2653.5 31.30345
2654 31.450251
2654.5 31.325656
2655 31.564355
2655.5 31.352967
2656 31.589377
2656.5 31.361872
2657 31.358701
2657.5 31.431121
2658 31.362471
2658.5 31.513888
2659 31.319761
2659.5 31.577766
2660 31.193396
2660.5 31.483111
2661 31.271365
2661.5 31.470582
2662 31.261072
2662.5 31.34822
2663 31.479269
2663.5 31.324822
2664 31.471211
2664.5 31.24665
2665 31.568915
2665.5 31.361473
2666 31.495064
2666.5 31.38344
2667 31.481442
2667.5 31.448328
2668 31.428191
2668.5 31.615275
2669 31.439662
2669.5 31.680202
2670 31.520268
2670.5 31.745467
2671 31.434402
2671.5 31.60578
2672 31.468409
2672.5 31.5063
2673 31.524274
2673.5 31.304851
2674 31.591597
2674.5 31.53652
2675 31.772515
2675.5 31.518024
2676 31.85513
2676.5 31.65715
2677 31.774768
2677.5 31.633151
2678 31.638309
2678.5 31.777203
2679 31.620717
2679.5 31.837276
2680 31.525242
2680.5 31.882015
2681 31.69404
2681.5 31.861249
2682 31.734157
2682.5 31.741253
2683 31.863353
2683.5 31.743139
2684 31.907156
2684.5 31.660664
2685 32.04065
2685.5 31.826845
2686 31.968749
2686.5 31.842086
2687 32.079285
2687.5 31.9821
2688 32.100883
2688.5 32.03159
2689 31.862491
2689.5 32.018569
2690 31.831622
2690.5 31.97864
2691 31.81515
2691.5 31.954855
2692 31.865528
2692.5 31.931162
2693 31.81822
2693.5 31.939414
2694 32.119483
2694.5 31.942528
2695 32.030222
2695.5 31.767723
2696 32.076892
2696.5 31.925681
2697 32.076153
2697.5 32.005873
2698 32.116446
2698.5 32.168689
2699 32.14705
2699.5 32.277891
2700 32.180592
2700.5 32.3636
2701 32.142654
2701.5 32.347596
2702 32.187387
2702.5 32.138956
2703 32.202712
2703.5 32.146218
2704 32.212651
2704.5 32.023141
2705 32.338163
2705.5 31.964281
2706 32.314146
2706.5 31.995541
2707 32.273597
2707.5 32.087243
2708 32.157701
2708.5 32.233784
2709 32.17991
2709.5 32.35693
2710 32.145965
2710.5 32.452649
2711 32.251012
2711.5 32.444254
2712 32.314667
2712.5 32.493702
2713 32.481599
2713.5 32.440874
2714 32.539588
2714.5 32.249868
2715 32.48224
2715.5 32.170737
2716 32.595107
2716.5 32.170671
2717 32.462245
2717.5 32.382634
2718 32.309362
2718.5 32.260478
2719 32.061112
2719.5 32.395053
2720 32.159397
2720.5 32.416078
2721 32.235602
2721.5 32.56419
2722 32.265675
2722.5 32.396764
2723 32.286644
2723.5 32.332584
2724 32.518482
2724.5 32.339638
2725 32.425383
2725.5 32.431442
2726 32.695299
2726.5 32.338601
2727 32.595333
2727.5 32.508451
2728 32.691967
2728.5 32.729322
2729 32.665059
2729.5 32.643068
2730 32.342714
2730.5 32.706523
2731 32.573682
2731.5 32.775849
2732 32.57319
2732.5 32.812288
2733 32.627684
2733.5 32.669437
2734 32.670578
2734.5 32.534692
2735 32.685047
2735.5 32.651404
2736 32.875225
2736.5 32.470199
2737 32.701626
2737.5 32.668647
2738 32.698232
2738.5 32.579109
2739 32.479793
2739.5 32.777527
2740 32.653195
2740.5 32.769257
2741 32.504186
2741.5 32.799932
2742 32.53648
2742.5 32.771561
2743 32.62209
2743.5 32.747221
2744 32.852581
2744.5 32.788587
2745 33.049104
2745.5 32.928982
2746 33.048186
2746.5 32.751763
2747 32.97126
2747.5 32.744482
2748 32.906806
2748.5 32.806012
2749 32.92003
2749.5 32.916439
2750 32.7683
2750.5 32.955378
2751 32.818469
2751.5 33.029002
2752 32.807049
2752.5 33.056176
2753 32.840776
2753.5 33.10881
2754 32.897595
2754.5 32.939434
2755 32.954931
2755.5 32.875016
2756 33.124307
2756.5 32.932746
2757 33.180586
2757.5 32.862353
2758 33.094892
2758.5 32.983181
2759 32.896543
2759.5 33.007056
2760 33.000475
2760.5 33.102167
2761 32.888907
2761.5 33.154529
2762 32.849771
2762.5 33.171177
2763 32.919869
2763.5 32.995182
2764 32.833645
2764.5 32.972947
2765 32.995462
2765.5 32.97807
2766 33.179647
2766.5 32.897329
2767 33.219457
2767.5 33.135444
2768 33.274096
2768.5 33.140507
2769 33.266675
2769.5 33.208945
2770 33.14234
2770.5 33.352038
2771 33.181641
2771.5 33.453938
2772 33.219779
2772.5 33.459538
2773 33.073047
2773.5 33.284307
2774 33.196652
2774.5 33.315495
2775 33.257043
2775.5 33.113676
2776 33.352688
2776.5 33.274812
2777 33.45021
2777.5 33.220583
2778 33.485958
2778.5 33.344138
2779 33.418256
2779.5 33.264351
2780 33.308852
2780.5 33.411622
2781 33.280614
2781.5 33.502164
2782 33.199939
2782.5 33.484623
2783 33.248338
2783.5 33.420262
2784 33.314657
2784.5 33.315781
2785 33.41836
2785.5 33.426303
2786 33.500248
2786.5 33.239216
2787 33.624533
2787.5 33.443987
2788 33.583698
2788.5 33.350775
2789 33.594415
2789.5 33.481577
2790 33.58101
2790.5 33.628455
2791 33.600792
2791.5 33.789456
2792 33.642751
2792.5 33.96011
2793 33.617494
2793.5 33.81232
2794 33.581603
2794.5 33.736414
2795 33.613184
2795.5 33.517304
2796 33.700967
2796.5 33.583552
2797 33.669144
2797.5 33.415934
2798 33.727244
2798.5 33.464795
2799 33.747122
2799.5 33.663523
2800 33.835095
##END=
