##TITLE= W6905m-3mm-270824
##JCAMP-DX= 4.24
##DATA TYPE= UV/VIS SPECTRUM
##ORIGIN=  Lambda-SPX/P Scan
##OWNER= Optiplex/OPTIPLEX-755
##DATE= 27.08.2024 15:59:57
##SPECTROMETER/DATA SYSTEM= Lambda 19 UV/Vis/NIR
##SAMPLE DESCRIPTION= 270824
##DELTAX= 0.5
##XUNITS= NANOMETERS
##YUNITS= TRANSMITTANCE
$$COMMENT= RTUNITS 0-1
##XFACTOR= 1.0
##YFACTOR= 0.01
##FIRSTX= 200
##LASTX= 2800
##NPOINTS= 5201
##FIRSTY= 0.00011
##MAXY= 0.349064
##MINY= 0.00011
##XYDATA= (XY..XY)
200 0.010985
200.5 0.026569
201 0.022827
201.5 0.020503
202 0.015474
202.5 0.027995
203 0.019299
203.5 0.025575
204 0.022535
204.5 0.011516
205 0.032972
205.5 0.016898
206 0.030478
206.5 0.013207
207 0.030538
207.5 0.011884
208 0.034505
208.5 0.021838
209 0.023565
209.5 0.027732
210 0.02555
210.5 0.032079
211 0.021403
211.5 0.0351
212 0.024393
212.5 0.036138
213 0.032102
213.5 0.028636
214 0.040269
214.5 0.038654
215 0.046216
215.5 0.031083
216 0.051364
216.5 0.034607
217 0.055732
217.5 0.043549
218 0.053239
218.5 0.053595
219 0.062918
219.5 0.061377
220 0.056288
220.5 0.078036
221 0.062329
221.5 0.086246
222 0.085004
222.5 0.093169
223 0.095129
223.5 0.109828
224 0.1148
224.5 0.123955
225 0.142297
225.5 0.138743
226 0.165799
226.5 0.167445
227 0.187135
227.5 0.192053
228 0.217979
228.5 0.231298
229 0.243629
229.5 0.273399
230 0.282953
230.5 0.309173
231 0.324464
231.5 0.343573
232 0.352547
232.5 0.38463
233 0.390267
233.5 0.411691
234 0.426203
234.5 0.445402
235 0.454504
235.5 0.463318
236 0.483521
236.5 0.476101
237 0.494176
237.5 0.491743
238 0.500242
238.5 0.50046
239 0.507354
239.5 0.507496
240 0.504649
240.5 0.507771
241 0.50017
241.5 0.509618
242 0.503225
242.5 0.499883
243 0.490086
243.5 0.503222
244 0.487563
244.5 0.496088
245 0.489896
245.5 0.477547
246 0.478443
246.5 0.479166
247 0.474976
247.5 0.461281
248 0.472119
248.5 0.460734
249 0.456618
249.5 0.451314
250 0.451447
250.5 0.442729
251 0.436965
251.5 0.437717
252 0.423874
252.5 0.436626
253 0.409253
253.5 0.416697
254 0.40897
254.5 0.412292
255 0.407448
255.5 0.408578
256 0.398239
256.5 0.392255
257 0.394824
257.5 0.390797
258 0.394693
258.5 0.384871
259 0.390566
259.5 0.381157
260 0.378688
260.5 0.375922
261 0.36461
261.5 0.374191
262 0.359179
262.5 0.369605
263 0.347847
263.5 0.363264
264 0.346633
264.5 0.367184
265 0.352882
265.5 0.341034
266 0.349064
266.5 0.348457
267 0.352457
267.5 0.341129
268 0.348163
268.5 0.337956
269 0.343671
269.5 0.340537
270 0.33064
270.5 0.342793
271 0.331662
271.5 0.342452
272 0.329351
272.5 0.344652
273 0.326503
273.5 0.336171
274 0.323506
274.5 0.327636
275 0.330067
275.5 0.330011
276 0.33346
276.5 0.324167
277 0.334516
277.5 0.323273
278 0.333436
278.5 0.33063
279 0.330012
279.5 0.328958
280 0.332472
280.5 0.3371
281 0.332456
281.5 0.34284
282 0.328047
282.5 0.337038
283 0.332161
283.5 0.336566
284 0.32561
284.5 0.336556
285 0.338354
285.5 0.331855
286 0.338367
286.5 0.332224
287 0.34278
287.5 0.346188
288 0.351561
288.5 0.340126
289 0.352278
289.5 0.350827
290 0.352034
290.5 0.36571
291 0.353812
291.5 0.36474
292 0.366221
292.5 0.380679
293 0.369121
293.5 0.380602
294 0.379215
294.5 0.388525
295 0.391574
295.5 0.393355
296 0.40218
296.5 0.397815
297 0.411677
297.5 0.408232
298 0.430393
298.5 0.432832
299 0.436492
299.5 0.437323
300 0.446445
300.5 0.454763
301 0.465353
301.5 0.475028
302 0.478243
302.5 0.48844
303 0.495851
303.5 0.517284
304 0.502533
304.5 0.521081
305 0.523909
305.5 0.543408
306 0.539633
306.5 0.556294
307 0.562996
307.5 0.574362
308 0.58623
308.5 0.577198
309 0.609962
309.5 0.60146
310 0.634739
310.5 0.633338
311 0.65705
311.5 0.665026
312 0.685185
312.5 0.699405
313 0.697443
313.5 0.720408
314 0.741547
314.5 0.758385
315 0.761235
315.5 0.77942
316 0.783867
316.5 0.808558
317 0.829667
317.5 0.824241
318 0.869723
318.5 0.869278
319 0.869924
319.5 0.935253
320 0.963941
320.5 0.95702
321 1.000649
321.5 1.011438
322 1.037379
322.5 1.040048
323 1.051879
323.5 1.085666
324 1.095532
324.5 1.120901
325 1.126476
325.5 1.158791
326 1.168198
326.5 1.204589
327 1.210751
327.5 1.235968
328 1.26258
328.5 1.274467
329 1.297967
329.5 1.306799
330 1.339634
330.5 1.339261
331 1.380344
331.5 1.387352
332 1.413499
332.5 1.436024
333 1.447158
333.5 1.487569
334 1.489452
334.5 1.519714
335 1.536877
335.5 1.561211
336 1.576481
336.5 1.610403
337 1.622024
337.5 1.650301
338 1.66579
338.5 1.685593
339 1.717969
339.5 1.723929
340 1.75753
340.5 1.760747
341 1.799775
341.5 1.822104
342 1.839707
342.5 1.86037
343 1.865667
343.5 1.889466
344 1.922037
344.5 1.958782
345 1.951262
345.5 1.982832
346 2.012064
346.5 2.031283
347 2.065824
347.5 2.076057
348 2.104174
348.5 2.135537
349 2.154149
349.5 2.174338
350 2.194036
350.5 2.209232
351 2.228324
351.5 2.25414
352 2.26696
352.5 2.298882
353 2.32352
353.5 2.339556
354 2.35519
354.5 2.390018
355 2.403905
355.5 2.446498
356 2.444145
356.5 2.474491
357 2.494972
357.5 2.517839
358 2.538193
358.5 2.573444
359 2.582062
359.5 2.598211
360 2.608159
360.5 2.645282
361 2.678602
361.5 2.686156
362 2.712627
362.5 2.738607
363 2.756679
363.5 2.778493
364 2.806721
364.5 2.842925
365 2.853263
365.5 2.875652
366 2.873244
366.5 2.945576
367 2.956606
367.5 2.98687
368 3.024468
368.5 3.072193
369 3.09646
369.5 3.145275
370 3.175704
370.5 3.209356
371 3.271304
371.5 3.288895
372 3.338102
372.5 3.389651
373 3.435159
373.5 3.482122
374 3.566524
374.5 3.608221
375 3.642143
375.5 3.707147
376 3.764106
376.5 3.830931
377 3.872132
377.5 3.967795
378 3.990918
378.5 4.13122
379 4.188285
379.5 4.268993
380 4.353184
380.5 4.415113
381 4.528169
381.5 4.60231
382 4.6794
382.5 4.774988
383 4.830733
383.5 4.922553
384 4.990195
384.5 5.121255
385 5.208477
385.5 5.316793
386 5.41736
386.5 5.513403
387 5.617285
387.5 5.685082
388 5.807656
388.5 5.893372
389 5.987145
389.5 6.115534
390 6.188709
390.5 6.287105
391 6.406706
391.5 6.50286
392 6.588294
392.5 6.668646
393 6.773416
393.5 6.889752
394 6.955315
394.5 7.060506
395 7.131358
395.5 7.224236
396 7.29908
396.5 7.414452
397 7.455065
397.5 7.495728
398 7.590569
398.5 7.633667
399 7.694995
399.5 7.775059
400 7.822429
400.5 7.877681
401 7.903787
401.5 8.001475
402 8.030835
402.5 8.0769
403 8.11859
403.5 8.19132
404 8.206789
404.5 8.232898
405 8.244729
405.5 8.31553
406 8.299182
406.5 8.357944
407 8.402061
407.5 8.37142
408 8.435276
408.5 8.40559
409 8.389019
409.5 8.441676
410 8.415403
410.5 8.438811
411 8.416864
411.5 8.444671
412 8.486193
412.5 8.455244
413 8.440082
413.5 8.45817
414 8.464684
414.5 8.478606
415 8.446173
415.5 8.424956
416 8.389053
416.5 8.416092
417 8.38861
417.5 8.364064
418 8.33188
418.5 8.302969
419 8.299293
419.5 8.266974
420 8.263303
420.5 8.238187
421 8.236568
421.5 8.200754
422 8.187622
422.5 8.144791
423 8.109693
423.5 8.126141
424 8.037856
424.5 8.031671
425 7.956425
425.5 7.961656
426 7.934377
426.5 7.945474
427 7.878578
427.5 7.862631
428 7.811671
428.5 7.785129
429 7.738397
429.5 7.707784
430 7.679842
430.5 7.638624
431 7.630311
431.5 7.586225
432 7.548799
432.5 7.511299
433 7.503326
433.5 7.471087
434 7.440665
434.5 7.428388
435 7.422859
435.5 7.362374
436 7.361682
436.5 7.333282
437 7.293534
437.5 7.238865
438 7.23415
438.5 7.234994
439 7.206674
439.5 7.156589
440 7.138672
440.5 7.12765
441 7.114714
441.5 7.082226
442 7.066834
442.5 7.087652
443 7.039971
443.5 7.044419
444 7.022684
444.5 7.047712
445 7.048683
445.5 7.051574
446 7.013245
446.5 7.021458
447 6.992485
447.5 7.024319
448 6.979108
448.5 7.002848
449 6.993392
449.5 6.958669
450 7.0278
450.5 7.020656
451 7.006703
451.5 7.026595
452 7.018444
452.5 7.056969
453 6.988062
453.5 7.042642
454 7.07392
454.5 7.062884
455 7.09613
455.5 7.07894
456 7.120948
456.5 7.127073
457 7.129496
457.5 7.124712
458 7.18518
458.5 7.178479
459 7.212729
459.5 7.225854
460 7.222548
460.5 7.256886
461 7.275572
461.5 7.298224
462 7.304445
462.5 7.345599
463 7.354389
463.5 7.392303
464 7.393992
464.5 7.420677
465 7.417341
465.5 7.442143
466 7.468905
466.5 7.494621
467 7.48935
467.5 7.50898
468 7.531004
468.5 7.576547
469 7.573239
469.5 7.604609
470 7.612304
470.5 7.665456
471 7.660039
471.5 7.692766
472 7.700811
472.5 7.724728
473 7.740706
473.5 7.764432
474 7.777418
474.5 7.813869
475 7.835773
475.5 7.864504
476 7.854617
476.5 7.883812
477 7.909684
477.5 7.951677
478 7.941651
478.5 7.999517
479 8.01264
479.5 8.028236
480 8.044838
480.5 8.059536
481 8.070096
481.5 8.098207
482 8.139566
482.5 8.138773
483 8.157851
483.5 8.168741
484 8.196063
484.5 8.209468
485 8.239346
485.5 8.253448
486 8.268554
486.5 8.290229
487 8.27622
487.5 8.302951
488 8.331898
488.5 8.343822
489 8.357068
489.5 8.355009
490 8.376347
490.5 8.389072
491 8.398215
491.5 8.400262
492 8.427573
492.5 8.426426
493 8.428165
493.5 8.433095
494 8.463562
494.5 8.446642
495 8.460138
495.5 8.478703
496 8.479682
496.5 8.493926
497 8.498918
497.5 8.519901
498 8.48313
498.5 8.529016
499 8.51417
499.5 8.508074
500 8.517686
500.5 8.512508
501 8.506065
501.5 8.531612
502 8.529045
502.5 8.526093
503 8.534021
503.5 8.524457
504 8.553479
504.5 8.549716
505 8.541398
505.5 8.554459
506 8.566069
506.5 8.558258
507 8.565704
507.5 8.569331
508 8.566007
508.5 8.575225
509 8.5845
509.5 8.573341
510 8.572126
510.5 8.590413
511 8.596527
511.5 8.61645
512 8.60972
512.5 8.59986
513 8.610822
513.5 8.626745
514 8.621816
514.5 8.62942
515 8.627746
515.5 8.657735
516 8.643676
516.5 8.631444
517 8.640574
517.5 8.664548
518 8.653343
518.5 8.660779
519 8.670929
519.5 8.658406
520 8.682252
520.5 8.688807
521 8.684694
521.5 8.678887
522 8.690787
522.5 8.664664
523 8.669715
523.5 8.676443
524 8.688879
524.5 8.676254
525 8.681145
525.5 8.660875
526 8.657025
526.5 8.662806
527 8.65871
527.5 8.670504
528 8.65789
528.5 8.657347
529 8.651876
529.5 8.65095
530 8.638541
530.5 8.635651
531 8.628856
531.5 8.646747
532 8.629606
532.5 8.594843
533 8.619475
533.5 8.621755
534 8.60868
534.5 8.600293
535 8.614051
535.5 8.594009
536 8.594853
536.5 8.603507
537 8.585739
537.5 8.609302
538 8.5695
538.5 8.567657
539 8.561239
539.5 8.56102
540 8.56159
540.5 8.546358
541 8.546694
541.5 8.521229
542 8.544765
542.5 8.527956
543 8.533215
543.5 8.500085
544 8.512387
544.5 8.505063
545 8.517811
545.5 8.496322
546 8.4733
546.5 8.487248
547 8.488105
547.5 8.473832
548 8.475751
548.5 8.456513
549 8.458593
549.5 8.441675
550 8.457306
550.5 8.428364
551 8.463742
551.5 8.424703
552 8.431898
552.5 8.416502
553 8.418141
553.5 8.382242
554 8.397438
554.5 8.400913
555 8.389821
555.5 8.396836
556 8.395562
556.5 8.372065
557 8.363882
557.5 8.360662
558 8.353757
558.5 8.341297
559 8.328927
559.5 8.352764
560 8.330543
560.5 8.334877
561 8.314675
561.5 8.313726
562 8.315466
562.5 8.293454
563 8.263664
563.5 8.2776
564 8.286621
564.5 8.276655
565 8.266319
565.5 8.255138
566 8.256577
566.5 8.244206
567 8.239803
567.5 8.236033
568 8.234072
568.5 8.219556
569 8.235148
569.5 8.221417
570 8.240836
570.5 8.206891
571 8.223428
571.5 8.197334
572 8.202424
572.5 8.18598
573 8.203219
573.5 8.185098
574 8.176495
574.5 8.181301
575 8.178984
575.5 8.172293
576 8.170952
576.5 8.171842
577 8.153858
577.5 8.175252
578 8.139946
578.5 8.146182
579 8.129025
579.5 8.137182
580 8.126906
580.5 8.119833
581 8.130573
581.5 8.101649
582 8.12745
582.5 8.105087
583 8.121598
583.5 8.08607
584 8.104371
584.5 8.086963
585 8.099934
585.5 8.097669
586 8.088466
586.5 8.095887
587 8.093678
587.5 8.096839
588 8.083264
588.5 8.08169
589 8.09112
589.5 8.065205
590 8.078901
590.5 8.06511
591 8.067182
591.5 8.052371
592 8.059373
592.5 8.038576
593 8.057392
593.5 8.047388
594 8.04213
594.5 8.040408
595 8.033567
595.5 8.038576
596 8.014623
596.5 8.036003
597 8.018616
597.5 8.038419
598 8.02047
598.5 8.030482
599 8.014669
599.5 8.035202
600 8.026665
600.5 8.024078
601 8.019557
601.5 8.004146
602 8.015005
602.5 8.00385
603 8.015303
603.5 8.006021
604 8.014919
604.5 7.998627
605 8.010601
605.5 8.001602
606 7.991617
606.5 8.003967
607 8.015265
607.5 7.9993
608 7.982182
608.5 7.99378
609 8.007895
609.5 7.997227
610 7.995721
610.5 7.981836
611 8.011457
611.5 7.9877
612 7.983014
612.5 7.996459
613 7.99125
613.5 7.985236
614 7.983649
614.5 7.985557
615 7.98047
615.5 7.975745
616 7.979483
616.5 7.975315
617 7.967255
617.5 7.977607
618 7.973917
618.5 7.979272
619 7.975019
619.5 7.984485
620 7.980718
620.5 7.985081
621 7.969966
621.5 7.972533
622 7.98444
622.5 7.988225
623 7.988839
623.5 7.971253
624 7.992648
624.5 7.982165
625 7.982601
625.5 7.994077
626 7.970158
626.5 7.985525
627 7.97755
627.5 7.978911
628 7.985929
628.5 7.990835
629 8
629.5 7.982036
630 7.993113
630.5 7.996345
631 7.98888
631.5 7.998139
632 8.000022
632.5 8.000216
633 7.983334
633.5 7.990608
634 8.008474
634.5 7.989601
635 7.999094
635.5 7.999848
636 7.991431
636.5 8.012568
637 8.013802
637.5 8.001679
638 8.023165
638.5 8.001785
639 7.999793
639.5 8.032671
640 8.004975
640.5 8.016004
641 8.000647
641.5 8.010463
642 8.009607
642.5 8.023573
643 8.022805
643.5 8.024333
644 8.00994
644.5 8.022237
645 8.024288
645.5 8.034357
646 8.020119
646.5 8.026002
647 8.025192
647.5 8.021206
648 8.008856
648.5 8.028993
649 8.048643
649.5 8.044378
650 8.024567
650.5 8.032832
651 8.044741
651.5 8.046247
652 8.03525
652.5 8.034464
653 8.041521
653.5 8.065744
654 8.039054
654.5 8.026388
655 8.039804
655.5 8.050796
656 8.066096
656.5 8.050106
657 8.03664
657.5 8.06517
658 8.059115
658.5 8.054229
659 8.054581
659.5 8.081282
660 8.064041
660.5 8.083097
661 8.057158
661.5 8.058468
662 8.066145
662.5 8.08382
663 8.07097
663.5 8.063143
664 8.069259
664.5 8.090134
665 8.076937
665.5 8.078182
666 8.082334
666.5 8.060642
667 8.106945
667.5 8.093397
668 8.083427
668.5 8.077246
669 8.095768
669.5 8.103549
670 8.094113
670.5 8.076714
671 8.097529
671.5 8.110718
672 8.076441
672.5 8.082563
673 8.108797
673.5 8.114452
674 8.104231
674.5 8.112295
675 8.111612
675.5 8.103779
676 8.113019
676.5 8.123847
677 8.129442
677.5 8.096617
678 8.108196
678.5 8.112818
679 8.118429
679.5 8.113212
680 8.114897
680.5 8.136497
681 8.131093
681.5 8.144315
682 8.112431
682.5 8.134063
683 8.121983
683.5 8.122326
684 8.139745
684.5 8.158126
685 8.135016
685.5 8.128709
686 8.136518
686.5 8.1243
687 8.146021
687.5 8.127867
688 8.143541
688.5 8.143298
689 8.1337
689.5 8.146901
690 8.118959
690.5 8.14586
691 8.152264
691.5 8.149734
692 8.179244
692.5 8.162697
693 8.164371
693.5 8.17001
694 8.163351
694.5 8.161065
695 8.166541
695.5 8.164342
696 8.164852
696.5 8.195244
697 8.161574
697.5 8.194382
698 8.171549
698.5 8.174668
699 8.194859
699.5 8.180633
700 8.194644
700.5 8.170664
701 8.174576
701.5 8.185153
702 8.19316
702.5 8.185548
703 8.203249
703.5 8.205085
704 8.186428
704.5 8.22025
705 8.207369
705.5 8.20474
706 8.214389
706.5 8.217369
707 8.214406
707.5 8.242952
708 8.229612
708.5 8.224373
709 8.221866
709.5 8.211236
710 8.212663
710.5 8.216933
711 8.230784
711.5 8.238183
712 8.246692
712.5 8.211055
713 8.233806
713.5 8.244134
714 8.231278
714.5 8.235117
715 8.277873
715.5 8.254099
716 8.25908
716.5 8.279079
717 8.258358
717.5 8.257514
718 8.261155
718.5 8.252896
719 8.265059
719.5 8.267234
720 8.248238
720.5 8.270364
721 8.285898
721.5 8.265184
722 8.279176
722.5 8.280683
723 8.259229
723.5 8.260181
724 8.28987
724.5 8.284726
725 8.288003
725.5 8.277503
726 8.305117
726.5 8.285375
727 8.314861
727.5 8.30683
728 8.297207
728.5 8.317788
729 8.309809
729.5 8.31297
730 8.320297
730.5 8.326424
731 8.328413
731.5 8.331853
732 8.317961
732.5 8.300561
733 8.330867
733.5 8.320432
734 8.334059
734.5 8.319247
735 8.34786
735.5 8.331328
736 8.368541
736.5 8.364109
737 8.367282
737.5 8.349226
738 8.357141
738.5 8.358175
739 8.353123
739.5 8.352404
740 8.375888
740.5 8.353774
741 8.359423
741.5 8.402875
742 8.346525
742.5 8.385737
743 8.359793
743.5 8.372798
744 8.356714
744.5 8.38824
745 8.381309
745.5 8.348802
746 8.386975
746.5 8.377062
747 8.421622
747.5 8.368624
748 8.438542
748.5 8.421738
749 8.419784
749.5 8.421189
750 8.423193
750.5 8.440737
751 8.404248
751.5 8.407833
752 8.42174
752.5 8.416867
753 8.436537
753.5 8.47212
754 8.45454
754.5 8.458106
755 8.442413
755.5 8.46182
756 8.45112
756.5 8.38784
757 8.428277
757.5 8.446929
758 8.439934
758.5 8.468128
759 8.491356
759.5 8.492061
760 8.467222
760.5 8.500656
761 8.465674
761.5 8.472279
762 8.47624
762.5 8.495831
763 8.488847
763.5 8.492173
764 8.469922
764.5 8.502974
765 8.530348
765.5 8.481218
766 8.507986
766.5 8.499038
767 8.5329
767.5 8.536313
768 8.521235
768.5 8.512675
769 8.534969
769.5 8.540364
770 8.534865
770.5 8.521594
771 8.531469
771.5 8.525252
772 8.567695
772.5 8.531462
773 8.547683
773.5 8.55791
774 8.549628
774.5 8.564886
775 8.585028
775.5 8.571043
776 8.581348
776.5 8.584502
777 8.57107
777.5 8.583829
778 8.607717
778.5 8.589727
779 8.589589
779.5 8.58408
780 8.629338
780.5 8.60722
781 8.579528
781.5 8.63487
782 8.567247
782.5 8.626039
783 8.619435
783.5 8.64631
784 8.623008
784.5 8.642092
785 8.611973
785.5 8.650259
786 8.611688
786.5 8.653352
787 8.675165
787.5 8.650493
788 8.681235
788.5 8.625419
789 8.659864
789.5 8.663392
790 8.662905
790.5 8.654176
791 8.676583
791.5 8.693818
792 8.693748
792.5 8.708617
793 8.687944
793.5 8.694499
794 8.649594
794.5 8.678576
795 8.742125
795.5 8.738525
796 8.685253
796.5 8.724185
797 8.71392
797.5 8.697703
798 8.681197
798.5 8.69414
799 8.683299
799.5 8.733141
800 8.712948
800.5 8.742443
801 8.717412
801.5 8.711607
802 8.744157
802.5 8.755553
803 8.735719
803.5 8.777601
804 8.755462
804.5 8.766838
805 8.768489
805.5 8.756079
806 8.764277
806.5 8.804044
807 8.771911
807.5 8.773548
808 8.743191
808.5 8.750808
809 8.780235
809.5 8.780718
810 8.783548
810.5 8.776657
811 8.753498
811.5 8.765323
812 8.746864
812.5 8.783524
813 8.7851
813.5 8.810767
814 8.785532
814.5 8.757574
815 8.816697
815.5 8.793169
816 8.832841
816.5 8.809317
817 8.836205
817.5 8.813393
818 8.800375
818.5 8.832046
819 8.815499
819.5 8.794834
820 8.839862
820.5 8.835208
821 8.8673
821.5 8.874326
822 8.859692
822.5 8.828475
823 8.891641
823.5 8.823091
824 8.853772
824.5 8.869815
825 8.821584
825.5 8.855443
826 8.88957
826.5 8.8547
827 8.859456
827.5 8.863825
828 8.809883
828.5 8.84833
829 8.844851
829.5 8.869336
830 8.796241
830.5 8.853163
831 8.854926
831.5 8.835061
832 8.865172
832.5 8.829211
833 8.846728
833.5 8.825691
834 8.796896
834.5 8.816838
835 8.807071
835.5 8.879304
836 8.887676
836.5 8.880687
837 8.822607
837.5 8.792357
838 8.842734
838.5 8.849712
839 8.803594
839.5 8.838791
840 8.78051
840.5 8.803799
841 8.831976
841.5 8.876342
842 8.84408
842.5 8.836205
843 8.802251
843.5 8.791412
844 8.81624
844.5 8.845992
845 8.786269
845.5 8.771635
846 8.86548
846.5 8.815655
847 8.866845
847.5 8.831772
848 8.829822
848.5 8.786395
849 8.80355
849.5 8.865239
850 8.846241
850.5 8.905561
851 8.851995
851.5 8.880286
852 8.870852
852.5 8.858702
853 8.858259
853.5 8.88669
854 8.810105
854.5 8.87574
855 8.935081
855.5 8.902923
856 8.951068
856.5 8.859758
857 8.89793
857.5 8.817139
858 8.925353
858.5 8.908197
859 8.923166
859.5 8.921321
860 8.970409
860.5 8.980787
861 6.793507
861.5 6.73827
862 6.785848
862.5 6.80553
863 6.747182
863.5 6.887195
864 6.724195
864.5 6.866112
865 6.893743
865.5 6.90427
866 6.798933
866.5 6.950583
867 6.930808
867.5 6.828959
868 6.957303
868.5 6.811359
869 7.076409
869.5 6.813122
870 6.78684
870.5 6.823897
871 6.998026
871.5 6.757402
872 6.970084
872.5 6.955376
873 6.759971
873.5 6.978451
874 6.820516
874.5 6.951996
875 6.789822
875.5 7.118255
876 6.825521
876.5 7.010744
877 6.887642
877.5 7.038335
878 6.969327
878.5 6.891032
879 7.025836
879.5 6.801275
880 7.056066
880.5 6.974659
881 6.935251
881.5 6.806325
882 6.934052
882.5 7.094551
883 7.018325
883.5 7.034051
884 6.765322
884.5 7.084349
885 6.94581
885.5 7.044753
886 6.881369
886.5 7.112081
887 6.79174
887.5 7.110091
888 7.03267
888.5 7.003277
889 7.08036
889.5 7.021493
890 7.09736
890.5 6.964817
891 7.1103
891.5 6.94849
892 7.133161
892.5 7.000618
893 6.915087
893.5 7.16328
894 7.030986
894.5 7.027574
895 6.70752
895.5 7.283253
896 6.855314
896.5 7.069073
897 6.96143
897.5 7.122611
898 7.047144
898.5 7.155536
899 7.052491
899.5 7.014851
900 7.190041
900.5 7.018146
901 7.300306
901.5 6.972843
902 7.174428
902.5 7.16121
903 7.183947
903.5 7.141111
904 6.989926
904.5 7.188534
905 6.961407
905.5 7.202909
906 6.878933
906.5 7.175659
907 6.942285
907.5 7.271956
908 7.076223
908.5 7.108308
909 7.118545
909.5 6.963107
910 7.200633
910.5 7.082532
911 7.247202
911.5 7.076503
912 7.132983
912.5 7.099715
913 7.148474
913.5 7.25657
914 7.156507
914.5 7.255378
915 7.058483
915.5 7.185112
916 6.906583
916.5 7.289945
917 7.03881
917.5 7.192788
918 7.110642
918.5 7.215479
919 7.210152
919.5 7.064471
920 7.279426
920.5 6.953551
921 7.246912
921.5 7.220802
922 7.27253
922.5 7.202741
923 7.294213
923.5 7.1865
924 7.17635
924.5 7.289728
925 7.141946
925.5 7.307738
926 7.145329
926.5 7.313441
927 7.156418
927.5 7.290713
928 7.235006
928.5 7.265206
929 7.272502
929.5 7.078418
930 7.297207
930.5 7.227888
931 7.285947
931.5 7.038834
932 7.363349
932.5 7.169726
933 7.256142
933.5 7.251243
934 7.294955
934.5 7.275376
935 7.248184
935.5 7.329006
936 7.263567
936.5 7.30435
937 7.154258
937.5 7.238173
938 7.236965
938.5 7.294624
939 7.378672
939.5 7.290539
940 7.304587
940.5 7.180782
941 7.398248
941.5 7.228329
942 7.411723
942.5 7.115979
943 7.4364
943.5 7.165849
944 7.391922
944.5 7.303681
945 7.342977
945.5 7.338692
946 7.280031
946.5 7.360623
947 7.26064
947.5 7.451215
948 7.245547
948.5 7.462289
949 7.331238
949.5 7.3333
950 7.39219
950.5 7.37788
951 7.52351
951.5 7.176211
952 7.417841
952.5 7.146057
953 7.492308
953.5 7.269804
954 7.450948
954.5 7.295848
955 7.405081
955.5 7.362097
956 7.372239
956.5 7.448837
957 7.333452
957.5 7.479135
958 7.261486
958.5 7.487848
959 7.343501
959.5 7.470925
960 7.477565
960.5 7.390837
961 7.537649
961.5 7.350709
962 7.419677
962.5 7.288621
963 7.428277
963.5 7.301301
964 7.517342
964.5 7.296962
965 7.420456
965.5 7.465536
966 7.337663
966.5 7.461285
967 7.325353
967.5 7.479762
968 7.311872
968.5 7.509287
969 7.45163
969.5 7.519235
970 7.467286
970.5 7.495085
971 7.52403
971.5 7.404878
972 7.560012
972.5 7.383369
973 7.596561
973.5 7.389417
974 7.5183
974.5 7.328761
975 7.454468
975.5 7.616796
976 7.489267
976.5 7.51147
977 7.338612
977.5 7.531986
978 7.4798
978.5 7.54766
979 7.386225
979.5 7.595664
980 7.480161
980.5 7.673471
981 7.580323
981.5 7.425731
982 7.594483
982.5 7.556017
983 7.628527
983.5 7.496344
984 7.628024
984.5 7.456224
985 7.508177
985.5 7.468028
986 7.419094
986.5 7.605346
987 7.592983
987.5 7.565016
988 7.349144
988.5 7.647625
989 7.480264
989.5 7.640553
990 7.472838
990.5 7.596703
991 7.522628
991.5 7.597952
992 7.548814
992.5 7.424261
993 7.669466
993.5 7.607132
994 7.657223
994.5 7.498292
995 7.64698
995.5 7.559545
996 7.669304
996.5 7.625292
997 7.563966
997.5 7.697671
998 7.510009
998.5 7.69565
999 7.447242
999.5 7.721608
1000 7.586748
1000.5 7.761171
1001 7.616431
1001.5 7.668915
1002 7.590304
1002.5 7.605834
1003 7.693042
1003.5 7.640647
1004 7.725774
1004.5 7.590105
1005 7.789357
1005.5 7.635261
1006 7.59353
1006.5 7.692097
1007 7.591721
1007.5 7.725971
1008 7.550361
1008.5 7.743361
1009 7.512242
1009.5 7.897042
1010 7.450706
1010.5 7.704097
1011 7.592046
1011.5 7.669246
1012 7.632873
1012.5 7.643491
1013 7.794747
1013.5 7.593002
1014 7.801225
1014.5 7.696648
1015 7.832117
1015.5 7.695609
1016 7.753453
1016.5 7.738134
1017 7.70777
1017.5 7.842162
1018 7.625151
1018.5 7.785576
1019 7.569045
1019.5 7.84947
1020 7.531024
1020.5 7.829941
1021 7.705548
1021.5 7.741375
1022 7.703745
1022.5 7.661635
1023 7.778149
1023.5 7.740684
1024 7.797698
1024.5 7.650419
1025 7.982533
1025.5 7.785718
1026 7.873115
1026.5 7.709905
1027 7.748872
1027.5 7.84706
1028 7.89207
1028.5 7.97611
1029 7.758583
1029.5 7.979288
1030 7.75599
1030.5 7.858267
1031 7.67711
1031.5 7.91058
1032 7.944158
1032.5 7.784738
1033 7.824113
1033.5 7.581247
1034 7.939354
1034.5 7.824071
1035 7.933797
1035.5 7.75457
1036 7.860024
1036.5 7.796197
1037 7.918413
1037.5 7.825828
1038 7.813203
1038.5 7.877596
1039 7.937253
1039.5 8.04268
1040 7.830003
1040.5 7.956491
1041 7.90656
1041.5 7.838537
1042 7.821351
1042.5 7.892611
1043 8.018921
1043.5 7.899345
1044 7.949723
1044.5 7.693899
1045 8.022283
1045.5 7.829511
1046 8.004613
1046.5 7.813936
1047 8.005177
1047.5 7.941037
1048 7.99612
1048.5 7.934285
1049 7.906597
1049.5 7.959875
1050 7.810123
1050.5 7.959916
1051 7.924078
1051.5 7.950092
1052 7.869107
1052.5 8.005174
1053 8.009569
1053.5 7.919622
1054 8.074486
1054.5 7.894617
1055 8.135239
1055.5 7.755768
1056 8.06312
1056.5 7.80379
1057 7.98599
1057.5 8.018651
1058 8.0853
1058.5 8.032463
1059 8.047243
1059.5 8.040691
1060 7.953158
1060.5 8.140276
1061 7.999254
1061.5 8.182796
1062 8.01895
1062.5 8.13053
1063 8.245507
1063.5 8.028766
1064 8.082701
1064.5 7.900191
1065 8.080895
1065.5 7.750648
1066 8.085738
1066.5 7.994711
1067 8.164644
1067.5 8.009527
1068 8.1035
1068.5 8.155194
1069 8.077291
1069.5 8.247823
1070 7.964867
1070.5 8.209226
1071 8.02645
1071.5 8.17247
1072 8.068201
1072.5 8.214453
1073 8.146845
1073.5 8.166306
1074 8.226073
1074.5 8.018148
1075 8.324856
1075.5 8.064123
1076 8.238094
1076.5 8.034156
1077 8.260211
1077.5 8.112242
1078 8.222359
1078.5 8.11837
1079 8.023501
1079.5 8.153692
1080 8.173351
1080.5 8.26527
1081 8.057605
1081.5 8.298764
1082 8.064283
1082.5 8.344842
1083 8.132887
1083.5 8.139122
1084 8.248919
1084.5 8.243256
1085 8.374418
1085.5 8.101597
1086 8.285884
1086.5 8.136319
1087 8.260217
1087.5 8.126728
1088 8.244136
1088.5 8.181684
1089 8.320076
1089.5 8.340396
1090 8.204069
1090.5 8.441035
1091 8.243313
1091.5 8.367138
1092 8.152926
1092.5 8.351214
1093 8.215714
1093.5 8.310003
1094 8.249035
1094.5 8.281323
1095 8.384172
1095.5 8.247714
1096 8.373754
1096.5 8.265038
1097 8.392178
1097.5 8.283225
1098 8.436477
1098.5 8.301823
1099 8.286919
1099.5 8.445384
1100 8.392134
1100.5 8.35788
1101 8.135315
1101.5 8.327948
1102 8.087508
1102.5 8.485521
1103 8.294171
1103.5 8.419152
1104 8.45717
1104.5 8.436988
1105 8.462146
1105.5 8.298051
1106 8.482514
1106.5 8.388175
1107 8.58418
1107.5 8.364018
1108 8.50339
1108.5 8.448584
1109 8.482914
1109.5 8.464825
1110 8.313274
1110.5 8.496674
1111 8.371384
1111.5 8.59233
1112 8.308415
1112.5 8.531717
1113 8.288026
1113.5 8.618034
1114 8.349965
1114.5 8.457085
1115 8.450073
1115.5 8.356998
1116 8.551026
1116.5 8.444562
1117 8.574103
1117.5 8.428589
1118 8.589299
1118.5 8.415283
1119 8.490122
1119.5 8.529535
1120 8.452082
1120.5 8.597379
1121 8.325827
1121.5 8.635509
1122 8.406802
1122.5 8.79362
1123 8.56339
1123.5 8.655418
1124 8.468365
1124.5 8.518965
1125 8.63085
1125.5 8.7172
1126 8.664626
1126.5 8.367197
1127 8.68099
1127.5 8.59725
1128 8.668908
1128.5 8.592891
1129 8.783504
1129.5 8.648688
1130 8.599812
1130.5 8.609323
1131 8.484094
1131.5 8.66353
1132 8.315433
1132.5 8.513817
1133 8.339331
1133.5 8.619367
1134 8.661235
1134.5 8.730348
1135 8.721624
1135.5 8.584379
1136 8.849216
1136.5 8.572018
1137 8.702634
1137.5 8.51282
1138 8.762086
1138.5 8.642077
1139 8.729185
1139.5 8.639776
1140 8.719298
1140.5 8.614747
1141 8.670787
1141.5 8.737201
1142 8.604749
1142.5 8.735375
1143 8.532517
1143.5 8.566897
1144 8.584519
1144.5 8.69225
1145 8.775611
1145.5 8.757608
1146 8.788214
1146.5 8.58235
1147 8.861838
1147.5 8.737952
1148 8.86741
1148.5 8.598664
1149 8.840418
1149.5 8.797696
1150 8.774874
1150.5 8.82122
1151 8.687267
1151.5 8.781233
1152 8.737332
1152.5 8.757512
1153 8.747236
1153.5 8.853409
1154 8.792002
1154.5 8.887827
1155 8.868587
1155.5 8.859991
1156 8.939996
1156.5 8.791162
1157 8.939225
1157.5 8.659708
1158 8.9674
1158.5 8.732995
1159 8.938675
1159.5 8.857261
1160 8.934645
1160.5 8.846559
1161 8.967622
1161.5 8.844247
1162 8.873956
1162.5 9.01138
1163 8.816643
1163.5 9.039226
1164 8.93448
1164.5 8.957688
1165 9.00215
1165.5 8.957847
1166 8.934392
1166.5 8.803307
1167 9.069412
1167.5 8.825915
1168 9.036041
1168.5 8.882613
1169 9.036037
1169.5 8.816414
1170 9.006278
1170.5 8.996359
1171 8.925124
1171.5 9.007875
1172 8.874241
1172.5 9.033778
1173 8.940575
1173.5 9.121615
1174 8.950298
1174.5 9.102716
1175 8.973674
1175.5 9.036623
1176 9.112171
1176.5 8.997771
1177 9.174845
1177.5 8.92588
1178 9.085461
1178.5 8.882381
1179 9.079633
1179.5 8.9638
1180 9.109128
1180.5 8.965077
1181 9.061562
1181.5 9.103994
1182 9.036648
1182.5 9.128845
1183 8.877391
1183.5 9.236626
1184 9.032419
1184.5 9.156612
1185 8.994482
1185.5 9.061377
1186 9.096403
1186.5 9.078811
1187 9.115797
1187.5 8.918571
1188 9.12076
1188.5 8.903009
1189 8.99775
1189.5 8.902036
1190 8.901238
1190.5 9.194279
1191 9.183758
1191.5 9.171871
1192 9.183516
1192.5 9.135749
1193 9.171684
1193.5 9.097093
1194 9.281505
1194.5 9.158119
1195 9.225564
1195.5 9.1411
1196 9.237126
1196.5 9.22652
1197 9.052482
1197.5 9.256682
1198 9.098838
1198.5 9.305441
1199 9.00708
1199.5 9.307696
1200 8.957582
1200.5 9.296086
1201 9.184554
1201.5 9.330031
1202 9.239788
1202.5 9.215178
1203 9.279495
1203.5 9.190513
1204 9.363817
1204.5 9.152737
1205 9.383038
1205.5 9.210815
1206 9.281765
1206.5 9.289338
1207 9.266942
1207.5 9.395877
1208 9.152182
1208.5 9.444547
1209 9.155883
1209.5 9.446768
1210 9.163554
1210.5 9.405339
1211 9.247868
1211.5 9.384073
1212 9.321469
1212.5 9.323651
1213 9.413164
1213.5 9.240126
1214 9.470949
1214.5 9.291966
1215 9.427925
1215.5 9.306818
1216 9.470321
1216.5 9.339578
1217 9.399708
1217.5 9.543464
1218 9.278637
1218.5 9.520437
1219 9.289005
1219.5 9.505777
1220 9.317165
1220.5 9.473249
1221 9.473493
1221.5 9.403814
1222 9.48299
1222.5 9.353539
1223 9.551235
1223.5 9.480575
1224 9.567866
1224.5 9.453409
1225 9.559092
1225.5 9.513364
1226 9.569333
1226.5 9.530196
1227 9.3858
1227.5 9.533826
1228 9.489951
1228.5 9.670807
1229 9.443141
1229.5 9.645541
1230 9.445038
1230.5 9.639235
1231 9.376014
1231.5 9.481736
1232 9.597026
1232.5 9.57483
1233 9.514391
1233.5 9.226082
1234 9.678362
1234.5 9.434754
1235 9.574981
1235.5 9.439462
1236 9.62286
1236.5 9.557788
1237 9.624329
1237.5 9.682018
1238 9.522813
1238.5 9.791715
1239 9.572267
1239.5 9.661806
1240 9.528758
1240.5 9.698052
1241 9.692554
1241.5 9.607042
1242 9.631666
1242.5 9.511434
1243 9.638545
1243.5 9.636915
1244 9.670211
1244.5 9.441631
1245 9.771045
1245.5 9.656174
1246 9.772931
1246.5 9.577734
1247 9.68985
1247.5 9.80554
1248 9.637421
1248.5 9.762259
1249 9.702856
1249.5 9.877266
1250 9.690461
1250.5 9.722016
1251 9.696914
1251.5 9.720044
1252 9.856597
1252.5 9.795886
1253 9.831899
1253.5 9.695674
1254 9.902884
1254.5 9.597947
1255 9.821548
1255.5 9.60989
1256 9.846952
1256.5 9.738977
1257 9.87995
1257.5 9.83806
1258 9.736884
1258.5 9.859491
1259 9.764789
1259.5 9.790821
1260 9.696683
1260.5 9.899219
1261 9.805822
1261.5 9.961718
1262 9.838911
1262.5 9.870519
1263 9.955499
1263.5 9.860317
1264 9.898029
1264.5 9.725027
1265 9.972294
1265.5 9.752057
1266 10.036284
1266.5 9.814631
1267 9.987064
1267.5 9.878231
1268 10.014819
1268.5 9.983904
1269 9.95657
1269.5 10.030329
1270 9.842291
1270.5 10.006222
1271 9.900767
1271.5 9.962698
1272 9.950011
1272.5 10.055115
1273 10.048032
1273.5 9.88122
1274 10.06678
1274.5 9.761415
1275 10.082639
1275.5 9.839988
1276 10.052275
1276.5 9.86174
1277 10.010156
1277.5 10.045562
1278 10.02086
1278.5 10.122035
1279 9.945859
1279.5 10.08494
1280 9.947053
1280.5 10.123119
1281 9.916914
1281.5 10.183502
1282 10.052178
1282.5 10.03089
1283 10.193041
1283.5 9.955598
1284 10.159846
1284.5 9.933355
1285 10.109439
1285.5 9.963024
1286 10.189857
1286.5 10.065328
1287 10.128833
1287.5 10.087276
1288 10.057434
1288.5 10.125221
1289 10.11736
1289.5 10.186947
1290 9.973864
1290.5 10.350492
1291 10.137948
1291.5 10.182484
1292 10.129997
1292.5 10.219506
1293 10.269957
1293.5 10.09189
1294 10.286678
1294.5 10.089185
1295 10.305584
1295.5 10.089759
1296 10.276445
1296.5 10.093971
1297 10.20371
1297.5 10.14799
1298 10.224113
1298.5 10.213139
1299 10.051304
1299.5 10.2685
1300 10.149274
1300.5 10.327322
1301 10.080528
1301.5 10.343933
1302 10.204859
1302.5 10.286455
1303 10.340161
1303.5 10.239545
1304 10.357006
1304.5 10.262918
1305 10.373177
1305.5 10.210747
1306 10.365399
1306.5 10.32169
1307 10.338996
1307.5 10.246696
1308 10.241396
1308.5 10.341858
1309 10.335363
1309.5 10.326296
1310 10.204984
1310.5 10.467239
1311 10.239249
1311.5 10.442488
1312 10.250902
1312.5 10.41798
1313 10.311689
1313.5 10.484391
1314 10.390613
1314.5 10.417004
1315 10.389401
1315.5 10.373825
1316 10.576661
1316.5 10.354586
1317 10.478849
1317.5 10.402213
1318 10.544298
1318.5 10.539563
1319 10.46155
1319.5 10.65996
1320 10.571185
1320.5 10.705518
1321 10.180366
1321.5 10.554302
1322 10.324176
1322.5 10.591492
1323 10.34913
1323.5 10.423569
1324 10.535686
1324.5 10.432404
1325 10.583732
1325.5 10.483477
1326 10.581657
1326.5 10.464099
1327 10.574527
1327.5 10.535565
1328 10.505024
1328.5 10.591543
1329 10.538062
1329.5 10.623146
1330 10.413545
1330.5 10.663069
1331 10.330154
1331.5 10.610299
1332 10.46573
1332.5 10.58189
1333 10.43221
1333.5 10.53995
1334 10.488536
1334.5 10.491853
1335 10.66529
1335.5 10.511945
1336 10.63944
1336.5 10.588624
1337 10.727756
1337.5 10.597277
1338 10.778634
1338.5 10.694721
1339 10.667473
1339.5 10.833018
1340 10.699183
1340.5 10.933045
1341 10.509507
1341.5 10.754471
1342 10.500485
1342.5 10.74124
1343 10.608736
1343.5 10.78007
1344 10.716282
1344.5 10.517071
1345 10.712226
1345.5 10.652403
1346 10.690729
1346.5 10.478167
1347 10.794192
1347.5 10.884153
1348 10.955394
1348.5 11.010162
1349 10.84276
1349.5 10.713872
1350 10.554993
1350.5 10.842549
1351 10.513856
1351.5 10.892122
1352 10.713384
1352.5 10.916277
1353 10.871631
1353.5 10.644263
1354 10.617723
1354.5 10.738974
1355 10.992822
1355.5 10.729665
1356 10.974669
1356.5 10.840811
1357 11.033056
1357.5 10.935584
1358 10.842841
1358.5 10.735883
1359 10.74849
1359.5 10.981733
1360 10.696758
1360.5 10.784455
1361 10.531256
1361.5 11.018155
1362 11.033753
1362.5 11.324637
1363 11.047891
1363.5 10.694807
1364 10.692694
1364.5 10.946233
1365 11.232807
1365.5 11.26518
1366 10.987817
1366.5 10.579818
1367 10.748115
1367.5 10.929772
1368 11.20639
1368.5 11.177919
1369 10.912194
1369.5 10.786419
1370 10.727417
1370.5 11.091839
1371 11.105427
1371.5 11.211837
1372 11.174867
1372.5 11.236315
1373 10.961083
1373.5 11.000115
1374 10.928082
1374.5 11.010066
1375 10.981384
1375.5 10.803354
1376 11.131676
1376.5 11.090059
1377 11.217663
1377.5 10.861136
1378 11.134517
1378.5 11.268381
1379 11.234208
1379.5 10.847184
1380 10.893074
1380.5 11.371838
1381 11.030952
1381.5 10.979241
1382 10.775572
1382.5 11.178102
1383 11.306224
1383.5 11.223938
1384 10.977636
1384.5 11.10405
1385 11.323899
1385.5 11.320768
1386 11.342184
1386.5 10.870887
1387 10.947943
1387.5 10.856524
1388 11.487407
1388.5 11.370949
1389 11.394718
1389.5 11.251854
1390 11.239932
1390.5 11.17658
1391 10.957549
1391.5 11.086897
1392 11.217033
1392.5 11.675469
1393 11.50744
1393.5 11.256344
1394 10.986086
1394.5 11.063347
1395 11.114644
1395.5 11.302188
1396 11.531374
1396.5 11.458799
1397 11.714401
1397.5 11.149023
1398 11.272306
1398.5 10.983928
1399 11.101023
1399.5 10.983501
1400 11.211591
1400.5 11.460998
1401 11.415976
1401.5 11.799952
1402 11.490426
1402.5 11.406471
1403 11.129335
1403.5 11.242557
1404 11.112601
1404.5 11.337963
1405 11.700372
1405.5 11.466015
1406 11.36738
1406.5 11.326692
1407 11.708988
1407.5 11.479599
1408 11.334046
1408.5 11.170705
1409 11.45888
1409.5 11.583341
1410 11.552485
1410.5 11.455379
1411 11.331715
1411.5 11.504912
1412 11.375381
1412.5 11.500654
1413 11.304247
1413.5 11.461976
1414 11.399353
1414.5 11.766507
1415 11.740497
1415.5 11.549702
1416 11.640986
1416.5 11.357003
1417 11.626533
1417.5 11.361943
1418 11.410955
1418.5 11.439023
1419 11.706205
1419.5 11.724781
1420 11.701301
1420.5 11.566201
1421 11.442286
1421.5 11.532603
1422 11.549456
1422.5 11.514382
1423 11.44256
1423.5 11.803205
1424 11.612261
1424.5 11.676106
1425 11.591876
1425.5 11.657012
1426 11.567856
1426.5 11.503704
1427 11.743464
1427.5 11.647905
1428 11.886391
1428.5 11.654817
1429 11.786427
1429.5 11.527874
1430 11.576031
1430.5 11.593479
1431 11.593923
1431.5 11.728668
1432 11.59706
1432.5 11.931967
1433 11.603902
1433.5 11.80969
1434 11.696865
1434.5 12.019091
1435 11.719858
1435.5 11.836684
1436 11.802918
1436.5 11.723629
1437 11.882024
1437.5 11.802851
1438 11.839408
1438.5 11.706664
1439 11.857626
1439.5 11.717155
1440 11.864425
1440.5 11.753973
1441 11.829541
1441.5 11.924691
1442 11.793183
1442.5 11.93895
1443 11.701039
1443.5 11.90484
1444 11.59877
1444.5 11.859757
1445 11.807045
1445.5 12.150722
1446 12.014014
1446.5 12.032913
1447 11.862692
1447.5 11.774641
1448 11.847828
1448.5 11.687166
1449 11.896817
1449.5 11.812418
1450 12.010904
1450.5 12.060684
1451 12.010042
1451.5 12.009914
1452 11.905576
1452.5 12.090536
1453 11.856002
1453.5 11.964959
1454 11.872522
1454.5 12.010118
1455 11.961403
1455.5 12.084622
1456 12.009294
1456.5 11.983015
1457 11.992373
1457.5 11.895275
1458 12.071759
1458.5 11.983162
1459 12.11637
1459.5 11.937482
1460 12.205671
1460.5 12.041488
1461 12.120944
1461.5 12.182768
1462 12.084626
1462.5 12.347988
1463 12.178715
1463.5 12.290653
1464 12.057324
1464.5 12.165155
1465 11.949624
1465.5 12.073614
1466 12.079577
1466.5 12.07353
1467 12.159726
1467.5 12.034749
1468 12.171987
1468.5 11.884012
1469 12.142907
1469.5 12.156786
1470 12.294038
1470.5 12.239762
1471 12.277427
1471.5 12.181639
1472 12.232823
1472.5 12.295235
1473 12.180704
1473.5 12.352976
1474 12.126964
1474.5 12.221091
1475 12.200759
1475.5 12.300968
1476 12.24277
1476.5 12.32797
1477 12.38252
1477.5 12.26168
1478 12.479804
1478.5 12.35642
1479 12.315385
1479.5 12.1844
1480 12.470138
1480.5 12.250996
1481 12.459158
1481.5 12.319316
1482 12.326285
1482.5 12.367979
1483 12.301393
1483.5 12.343972
1484 12.292671
1484.5 12.419838
1485 12.290565
1485.5 12.416137
1486 12.290018
1486.5 12.383056
1487 12.465934
1487.5 12.446613
1488 12.442801
1488.5 12.247521
1489 12.525326
1489.5 12.271183
1490 12.572816
1490.5 12.371445
1491 12.631869
1491.5 12.532783
1492 12.636434
1492.5 12.604697
1493 12.4612
1493.5 12.525956
1494 12.416435
1494.5 12.517825
1495 12.463127
1495.5 12.555833
1496 12.539312
1496.5 12.52896
1497 12.53196
1497.5 12.472755
1498 12.60017
1498.5 12.548144
1499 12.59468
1499.5 12.320435
1500 12.619519
1500.5 12.469637
1501 12.649353
1501.5 12.517475
1502 12.583709
1502.5 12.614995
1503 12.599513
1503.5 12.74628
1504 12.653652
1504.5 12.843539
1505 12.652051
1505.5 12.844315
1506 12.804981
1506.5 12.741928
1507 12.694599
1507.5 12.638034
1508 12.767696
1508.5 12.556367
1509 12.756264
1509.5 12.565486
1510 12.754081
1510.5 12.587734
1511 12.741376
1511.5 12.628174
1512 12.795332
1512.5 12.717034
1513 12.703457
1513.5 12.902528
1514 12.634633
1514.5 12.868559
1515 12.824067
1515.5 12.993336
1516 12.876378
1516.5 12.985182
1517 12.859248
1517.5 12.769403
1518 12.865531
1518.5 12.758173
1519 12.935898
1519.5 12.741965
1520 12.918282
1520.5 12.755708
1521 12.939286
1521.5 12.911613
1522 12.937236
1522.5 12.960179
1523 12.823784
1523.5 13.066214
1524 12.960516
1524.5 13.092624
1525 12.757441
1525.5 12.96038
1526 12.883948
1526.5 12.977061
1527 12.854262
1527.5 12.938578
1528 12.994623
1528.5 12.911953
1529 13.058956
1529.5 12.899455
1530 13.138805
1530.5 12.95387
1531 13.052943
1531.5 12.867239
1532 13.031976
1532.5 13.073403
1533 12.992288
1533.5 13.02976
1534 12.872252
1534.5 13.16292
1535 13.112579
1535.5 13.236818
1536 13.061528
1536.5 13.425718
1537 13.164239
1537.5 13.269544
1538 13.222757
1538.5 13.041517
1539 13.206291
1539.5 13.080184
1540 13.121167
1540.5 13.022129
1541 13.220038
1541.5 13.103448
1542 13.234754
1542.5 13.091151
1543 12.976448
1543.5 13.190635
1544 13.143231
1544.5 13.261232
1545 12.977996
1545.5 13.271356
1546 13.109902
1546.5 13.231961
1547 13.157555
1547.5 13.318549
1548 13.290869
1548.5 13.293438
1549 13.380863
1549.5 13.300562
1550 13.416874
1550.5 13.471456
1551 13.616993
1551.5 13.260441
1552 13.333194
1552.5 13.320509
1553 13.331507
1553.5 13.244
1554 13.15612
1554.5 13.416451
1555 13.229157
1555.5 13.409892
1556 13.221362
1556.5 13.380104
1557 13.263725
1557.5 13.4665
1558 13.39599
1558.5 13.415509
1559 13.531119
1559.5 13.430274
1560 13.65533
1560.5 13.500647
1561 13.746138
1561.5 13.35934
1562 13.522248
1562.5 13.377428
1563 13.411632
1563.5 13.51556
1564 13.415286
1564.5 13.546677
1565 13.344018
1565.5 13.566186
1566 13.204168
1566.5 13.506424
1567 13.468266
1567.5 13.574518
1568 13.51295
1568.5 13.602158
1569 13.570063
1569.5 13.543266
1570 13.749795
1570.5 13.535264
1571 13.800345
1571.5 13.685204
1572 13.709444
1572.5 13.718003
1573 13.738792
1573.5 13.663633
1574 13.539086
1574.5 13.658947
1575 13.493325
1575.5 13.748743
1576 13.506457
1576.5 13.703552
1577 13.551195
1577.5 13.666011
1578 13.64567
1578.5 13.728127
1579 13.751274
1579.5 13.575806
1580 13.829227
1580.5 13.717115
1581 13.827096
1581.5 13.743724
1582 13.941261
1582.5 13.779536
1583 13.896221
1583.5 13.927199
1584 13.848403
1584.5 13.873501
1585 13.637663
1585.5 13.82954
1586 13.655075
1586.5 13.889834
1587 13.745211
1587.5 13.832487
1588 13.761126
1588.5 13.748842
1589 13.807549
1589.5 13.785812
1590 13.900384
1590.5 13.683216
1591 13.976254
1591.5 13.83758
1592 13.928685
1592.5 13.840041
1593 14.000881
1593.5 13.978918
1594 13.971585
1594.5 14.203346
1595 14.075297
1595.5 14.16121
1596 14.015822
1596.5 14.083783
1597 13.888954
1597.5 13.972965
1598 13.93712
1598.5 13.930039
1599 13.925873
1599.5 13.824043
1600 14.017509
1600.5 13.953918
1601 14.092202
1601.5 13.89306
1602 14.146556
1602.5 14.007418
1603 14.191858
1603.5 14.089359
1604 14.154859
1604.5 14.197981
1605 14.152017
1605.5 14.146231
1606 14.012031
1606.5 14.214388
1607 14.049213
1607.5 14.194784
1608 14.054869
1608.5 14.10747
1609 14.210986
1609.5 14.11182
1610 14.164491
1610.5 13.973774
1611 14.270304
1611.5 14.001776
1612 14.257208
1612.5 14.105025
1613 14.285217
1613.5 14.179461
1614 14.309882
1614.5 14.372064
1615 14.324029
1615.5 14.426179
1616 14.280958
1616.5 14.291526
1617 14.209992
1617.5 14.338344
1618 14.192486
1618.5 14.347209
1619 14.327106
1619.5 14.264901
1620 14.389166
1620.5 14.279358
1621 14.408173
1621.5 14.128426
1622 14.371674
1622.5 14.174098
1623 14.413098
1623.5 14.357801
1624 14.434053
1624.5 14.453109
1625 14.478093
1625.5 14.527549
1626 14.498638
1626.5 14.653063
1627 14.374948
1627.5 14.522646
1628 14.381911
1628.5 14.490826
1629 14.446829
1629.5 14.411941
1630 14.525181
1630.5 14.431006
1631 14.593756
1631.5 14.358123
1632 14.523409
1632.5 14.349012
1633 14.565055
1633.5 14.341873
1634 14.545816
1634.5 14.54515
1635 14.50979
1635.5 14.591737
1636 14.461555
1636.5 14.736493
1637 14.605722
1637.5 14.875391
1638 14.705051
1638.5 14.859095
1639 14.75257
1639.5 14.644957
1640 14.738159
1640.5 14.548524
1641 14.785205
1641.5 14.538631
1642 14.73472
1642.5 14.526927
1643 14.754181
1643.5 14.659767
1644 14.742061
1644.5 14.665417
1645 14.619549
1645.5 14.72808
1646 14.657179
1646.5 14.769769
1647 14.667116
1647.5 14.952986
1648 14.812626
1648.5 14.996713
1649 14.826179
1649.5 14.749123
1650 14.884052
1650.5 14.6864
1651 14.868475
1651.5 14.686164
1652 14.941023
1652.5 14.739132
1653 14.850162
1653.5 14.676622
1654 14.802682
1654.5 14.873946
1655 14.844467
1655.5 14.813483
1656 14.674196
1656.5 15.00261
1657 14.861476
1657.5 15.022166
1658 14.765015
1658.5 15.118681
1659 14.949071
1659.5 15.126319
1660 15.030958
1660.5 14.937527
1661 14.994386
1661.5 14.925978
1662 15.081121
1662.5 14.914352
1663 15.044384
1663.5 14.924492
1664 15.046768
1664.5 14.959154
1665 14.930728
1665.5 15.117306
1666 15.114148
1666.5 15.089066
1667 14.91044
1667.5 15.029481
1668 14.728004
1668.5 15.016599
1669 14.821057
1669.5 15.053211
1670 14.851663
1670.5 15.15699
1671 15.133958
1671.5 15.132205
1672 15.242983
1672.5 15.084191
1673 15.273313
1673.5 14.945877
1674 15.179776
1674.5 14.949241
1675 15.22184
1675.5 15.064828
1676 15.208615
1676.5 15.20227
1677 15.094148
1677.5 15.313905
1678 15.234302
1678.5 15.356848
1679 15.058327
1679.5 15.238461
1680 15.115589
1680.5 15.255655
1681 15.232547
1681.5 15.241522
1682 15.294749
1682.5 15.25847
1683 15.496257
1683.5 15.254241
1684 15.474787
1684.5 15.186135
1685 15.346476
1685.5 15.18511
1686 15.248886
1686.5 15.316485
1687 15.277316
1687.5 15.340732
1688 15.212345
1688.5 15.473585
1689 15.350266
1689.5 15.485626
1690 15.300968
1690.5 15.483476
1691 15.213448
1691.5 15.386313
1692 15.390284
1692.5 15.337783
1693 15.473831
1693.5 15.341774
1694 15.490966
1694.5 15.424113
1695 15.561832
1695.5 15.500069
1696 15.506899
1696.5 15.510057
1697 15.450631
1697.5 15.45264
1698 15.384722
1698.5 15.553211
1699 15.243506
1699.5 15.549569
1700 15.32601
1700.5 15.613653
1701 15.390588
1701.5 15.614672
1702 15.640241
1702.5 15.620096
1703 15.684126
1703.5 15.568183
1704 15.616782
1704.5 15.45032
1705 15.631956
1705.5 15.52846
1706 15.564589
1706.5 15.629582
1707 15.580817
1707.5 15.625192
1708 15.512593
1708.5 15.698406
1709 15.526684
1709.5 15.646398
1710 15.458751
1710.5 15.627415
1711 15.581919
1711.5 15.738456
1712 15.666004
1712.5 15.720041
1713 15.847646
1713.5 15.680487
1714 15.933029
1714.5 15.772575
1715 16.0412
1715.5 15.821411
1716 15.791117
1716.5 15.759921
1717 15.71061
1717.5 15.823936
1718 15.757017
1718.5 15.930668
1719 15.695225
1719.5 15.927711
1720 15.738361
1720.5 15.846959
1721 15.778787
1721.5 15.860257
1722 15.821962
1722.5 15.816639
1723 15.925354
1723.5 15.863056
1724 15.974951
1724.5 15.735734
1725 15.903747
1725.5 15.924767
1726 15.996343
1726.5 15.936913
1727 15.972176
1727.5 15.956292
1728 15.891567
1728.5 16.004854
1729 15.849175
1729.5 16.129208
1730 15.934591
1730.5 16.130699
1731 15.914418
1731.5 16.094349
1732 16.119282
1732.5 16.109492
1733 16.150287
1733.5 15.976293
1734 16.350818
1734.5 16.22932
1735 16.252181
1735.5 15.999073
1736 16.27041
1736.5 16.066936
1737 16.113473
1737.5 16.107479
1738 16.134442
1738.5 16.264983
1739 15.976989
1739.5 16.313268
1740 16.053525
1740.5 16.272154
1741 16.040601
1741.5 16.219525
1742 16.14866
1742.5 16.085199
1743 16.314112
1743.5 16.218422
1744 16.213964
1744.5 16.053502
1745 16.379307
1745.5 16.130775
1746 16.347882
1746.5 16.135857
1747 16.372083
1747.5 16.216695
1748 16.366662
1748.5 16.394036
1749 16.33473
1749.5 16.480003
1750 16.254394
1750.5 16.381264
1751 16.232103
1751.5 16.432756
1752 16.434157
1752.5 16.373587
1753 16.361374
1753.5 16.340868
1754 16.456355
1754.5 16.338518
1755 16.476996
1755.5 16.302271
1756 16.553494
1756.5 16.274031
1757 16.511275
1757.5 16.415982
1758 16.550459
1758.5 16.596788
1759 16.543911
1759.5 16.522846
1760 16.573288
1760.5 16.777188
1761 16.557363
1761.5 16.621697
1762 16.457121
1762.5 16.568083
1763 16.570303
1763.5 16.548654
1764 16.544968
1764.5 16.471869
1765 16.693252
1765.5 16.444442
1766 16.724542
1766.5 16.535836
1767 16.662623
1767.5 16.51668
1768 16.683827
1768.5 16.637009
1769 16.648804
1769.5 16.725118
1770 16.650988
1770.5 16.816397
1771 16.719812
1771.5 16.725256
1772 16.621056
1772.5 16.699915
1773 16.647489
1773.5 16.643673
1774 16.786954
1774.5 16.616857
1775 16.750608
1775.5 16.606241
1776 16.83006
1776.5 16.586936
1777 16.828334
1777.5 16.736124
1778 16.855106
1778.5 16.812874
1779 16.772698
1779.5 16.894694
1780 16.862215
1780.5 16.931929
1781 16.81595
1781.5 17.044802
1782 16.900818
1782.5 16.999187
1783 16.916595
1783.5 17.043437
1784 16.950184
1784.5 16.991451
1785 17.053352
1785.5 16.857699
1786 17.180635
1786.5 16.934864
1787 17.061411
1787.5 16.895679
1788 17.093335
1788.5 17.000826
1789 17.077985
1789.5 17.109589
1790 16.862157
1790.5 17.168891
1791 17.156439
1791.5 17.205618
1792 16.94995
1792.5 17.263323
1793 17.197619
1793.5 17.303135
1794 17.194203
1794.5 17.243835
1795 17.296211
1795.5 17.197584
1796 17.320098
1796.5 17.1857
1797 17.25051
1797.5 17.092812
1798 17.085998
1798.5 17.038471
1799 17.041026
1799.5 17.276733
1800 17.386168
1800.5 17.355713
1801 17.242864
1801.5 17.462203
1802 17.315653
1802.5 17.5357
1803 17.265867
1803.5 17.417474
1804 17.225213
1804.5 17.20859
1805 17.38265
1805.5 17.409438
1806 17.577682
1806.5 17.485549
1807 17.540756
1807.5 17.291726
1808 17.389829
1808.5 17.272115
1809 17.396733
1809.5 17.357564
1810 17.274772
1810.5 17.576693
1811 17.506884
1811.5 17.6673
1812 17.408228
1812.5 17.683908
1813 17.310461
1813.5 17.526662
1814 17.382489
1814.5 17.446195
1815 17.517018
1815.5 17.66707
1816 17.791681
1816.5 17.522833
1817 17.618236
1817.5 17.403239
1818 17.662635
1818.5 17.441608
1819 17.298102
1819.5 17.42714
1820 17.629379
1820.5 17.745771
1821 17.624919
1821.5 17.852469
1822 17.697309
1822.5 17.962858
1823 17.56153
1823.5 17.673017
1824 17.515007
1824.5 17.487025
1825 17.557614
1825.5 17.567036
1826 17.962572
1826.5 17.805189
1827 17.822334
1827.5 17.650922
1828 17.776142
1828.5 17.544803
1829 17.724375
1829.5 17.651838
1830 17.661552
1830.5 17.834601
1831 17.885156
1831.5 18.065697
1832 17.875287
1832.5 18.036145
1833 17.607288
1833.5 17.797846
1834 17.697568
1834.5 17.647916
1835 17.541061
1835.5 17.660007
1836 17.974323
1836.5 17.871751
1837 18.057542
1837.5 17.894636
1838 18.092129
1838.5 17.870472
1839 17.974389
1839.5 17.739457
1840 17.71099
1840.5 17.815438
1841 17.827332
1841.5 18.104623
1842 18.032655
1842.5 18.449581
1843 18.155783
1843.5 18.157601
1844 17.916192
1844.5 17.97273
1845 17.924988
1845.5 17.794299
1846 17.695828
1846.5 17.683132
1847 18.006539
1847.5 18.047327
1848 18.296713
1848.5 18.09857
1849 18.317619
1849.5 18.199638
1850 18.33933
1850.5 18.188804
1851 18.083826
1851.5 18.017603
1852 17.924926
1852.5 18.021731
1853 18.078935
1853.5 18.387254
1854 18.267234
1854.5 18.230967
1855 18.038242
1855.5 17.989519
1856 18.241264
1856.5 18.366498
1857 18.437967
1857.5 18.046586
1858 18.171355
1858.5 17.839158
1859 18.244733
1859.5 18.247932
1860 18.438344
1860.5 18.40973
1861 18.518764
1861.5 18.339068
1862 18.154824
1862.5 18.32296
1863 18.230505
1863.5 18.460412
1864 18.491489
1864.5 18.712305
1865 18.511014
1865.5 18.372199
1866 18.159094
1866.5 18.196113
1867 18.411611
1867.5 18.27376
1868 18.479909
1868.5 18.082859
1869 18.314613
1869.5 18.08877
1870 18.442143
1870.5 18.16362
1871 18.515415
1871.5 18.348263
1872 18.35717
1872.5 18.561839
1873 18.533896
1873.5 18.58464
1874 18.504171
1874.5 18.550986
1875 18.388987
1875.5 18.467091
1876 18.524994
1876.5 18.639015
1877 18.744931
1877.5 18.657216
1878 18.946856
1878.5 18.50353
1879 18.645322
1879.5 18.40651
1880 18.571946
1880.5 18.546572
1881 18.729024
1881.5 18.59404
1882 18.564092
1882.5 18.534501
1883 18.394573
1883.5 18.74965
1884 18.603803
1884.5 18.784587
1885 18.741208
1885.5 18.949653
1886 18.75627
1886.5 18.756223
1887 18.710513
1887.5 18.554029
1888 18.692122
1888.5 18.42131
1889 18.652195
1889.5 18.53444
1890 18.955004
1890.5 18.737011
1891 18.818994
1891.5 18.798456
1892 18.758465
1892.5 18.883407
1893 18.93414
1893.5 19.052182
1894 18.879783
1894.5 19.05552
1895 18.922463
1895.5 18.956362
1896 18.736242
1896.5 18.877776
1897 18.802981
1897.5 18.748164
1898 18.829443
1898.5 18.667521
1899 19.057219
1899.5 19.027223
1900 19.135545
1900.5 18.900277
1901 19.028714
1901.5 19.002837
1902 18.987803
1902.5 18.899581
1903 18.739808
1903.5 18.934958
1904 18.739542
1904.5 18.827887
1905 18.88642
1905.5 19.223057
1906 19.051498
1906.5 19.233289
1907 19.257438
1907.5 19.238442
1908 19.243319
1908.5 19.064543
1909 19.168293
1909.5 18.981443
1910 19.100997
1910.5 18.979828
1911 18.974328
1911.5 18.937445
1912 18.918458
1912.5 19.060451
1913 19.146802
1913.5 19.245625
1914 19.026171
1914.5 19.333626
1915 19.162691
1915.5 19.385712
1916 19.276841
1916.5 19.422626
1917 19.213308
1917.5 19.181147
1918 19.142896
1918.5 19.10394
1919 19.090091
1919.5 19.028941
1920 19.505146
1920.5 19.319439
1921 19.533117
1921.5 19.219504
1922 19.211277
1922.5 19.218503
1923 19.194719
1923.5 19.371542
1924 19.131717
1924.5 19.242676
1925 18.955445
1925.5 19.229569
1926 19.100812
1926.5 19.305883
1927 19.204201
1927.5 19.354236
1928 19.308114
1928.5 19.328518
1929 19.345379
1929.5 19.307441
1930 19.542465
1930.5 19.283168
1931 19.549732
1931.5 19.367687
1932 19.418205
1932.5 19.479153
1933 19.524997
1933.5 19.62163
1934 19.356981
1934.5 19.592914
1935 19.324967
1935.5 19.580778
1936 19.325422
1936.5 19.580196
1937 19.356155
1937.5 19.633025
1938 19.543509
1938.5 19.479293
1939 19.542512
1939.5 19.458252
1940 19.722992
1940.5 19.506398
1941 19.70461
1941.5 19.55405
1942 19.705358
1942.5 19.627553
1943 19.656602
1943.5 19.65259
1944 19.645247
1944.5 19.800976
1945 19.537024
1945.5 19.78012
1946 19.535019
1946.5 19.776216
1947 19.664899
1947.5 19.746566
1948 19.795337
1948.5 19.671799
1949 19.858511
1949.5 19.709133
1950 19.881159
1950.5 19.660933
1951 19.909602
1951.5 19.807947
1952 19.855376
1952.5 19.803643
1953 19.864513
1953.5 19.975851
1954 19.849263
1954.5 19.962154
1955 19.805472
1955.5 20.051056
1956 19.816358
1956.5 20.055448
1957 19.910669
1957.5 20.037523
1958 20.003949
1958.5 20.026048
1959 19.967633
1959.5 19.779919
1960 20.054431
1960.5 19.950207
1961 20.119351
1961.5 19.891891
1962 20.199142
1962.5 20.026998
1963 20.112734
1963.5 20.079583
1964 20.035696
1964.5 20.137878
1965 20.130232
1965.5 20.267819
1966 20.046496
1966.5 20.234564
1967 20.079426
1967.5 20.247333
1968 20.149764
1968.5 20.146041
1969 20.259364
1969.5 20.185076
1970 20.293577
1970.5 20.106313
1971 20.349127
1971.5 20.197767
1972 20.323098
1972.5 20.207858
1973 20.401019
1973.5 20.251828
1974 20.369506
1974.5 20.291634
1975 20.324561
1975.5 20.364238
1976 20.289913
1976.5 20.435412
1977 20.293623
1977.5 20.439827
1978 20.32232
1978.5 20.470594
1979 20.412543
1979.5 20.365076
1980 20.547439
1980.5 20.360172
1981 20.515399
1981.5 20.194869
1982 20.470707
1982.5 20.318934
1983 20.577851
1983.5 20.423965
1984 20.529427
1984.5 20.428343
1985 20.507276
1985.5 20.55387
1986 20.461757
1986.5 20.67802
1987 20.429887
1987.5 20.641902
1988 20.507663
1988.5 20.682278
1989 20.717086
1989.5 20.76133
1990 20.703384
1990.5 20.582698
1991 20.845872
1991.5 20.611176
1992 20.687646
1992.5 20.510338
1993 20.755419
1993.5 20.608272
1994 20.811559
1994.5 20.73995
1995 20.722365
1995.5 20.812477
1996 20.565057
1996.5 20.780206
1997 20.71467
1997.5 20.773853
1998 20.720774
1998.5 20.863588
1999 20.747779
1999.5 20.835038
2000 20.819822
2000.5 20.779498
2001 20.907497
2001.5 20.688151
2002 20.940483
2002.5 20.707501
2003 20.937105
2003.5 20.682584
2004 20.873016
2004.5 20.815012
2005 20.849848
2005.5 20.911019
2006 20.776413
2006.5 20.943789
2007 20.744215
2007.5 21.017133
2008 20.897399
2008.5 21.028934
2009 20.773582
2009.5 20.99669
2010 20.921344
2010.5 20.872962
2011 20.96092
2011.5 20.845328
2012 21.081832
2012.5 20.896432
2013 21.089561
2013.5 20.86836
2014 21.076089
2014.5 20.983747
2015 21.051523
2015.5 21.001104
2016 20.848979
2016.5 21.165331
2017 21.089959
2017.5 21.096313
2018 21.04702
2018.5 21.280155
2019 21.151328
2019.5 21.287803
2020 21.057063
2020.5 21.061584
2021 21.135077
2021.5 21.034101
2022 21.166183
2022.5 21.055391
2023 21.22042
2023.5 21.107942
2024 21.195558
2024.5 21.104327
2025 21.260989
2025.5 21.391506
2026 21.281929
2026.5 21.221755
2027 21.088859
2027.5 21.286109
2028 21.184275
2028.5 21.275815
2029 21.169536
2029.5 21.349809
2030 21.312362
2030.5 21.385728
2031 21.355581
2031.5 21.234697
2032 21.457732
2032.5 21.300952
2033 21.518266
2033.5 21.340664
2034 21.363306
2034.5 21.330418
2035 21.430402
2035.5 21.353593
2036 21.284774
2036.5 21.479198
2037 21.381491
2037.5 21.577302
2038 21.176957
2038.5 21.395881
2039 21.199302
2039.5 21.471721
2040 21.365701
2040.5 21.447606
2041 21.545966
2041.5 21.5064
2042 21.675904
2042.5 21.444713
2043 21.539417
2043.5 21.382219
2044 21.548626
2044.5 21.458408
2045 21.571022
2045.5 21.519141
2046 21.718948
2046.5 21.651906
2047 21.482266
2047.5 21.585785
2048 21.414016
2048.5 21.628572
2049 21.399093
2049.5 21.691929
2050 21.498328
2050.5 21.781534
2051 21.747667
2051.5 21.795587
2052 21.666583
2052.5 21.511169
2053 21.706857
2053.5 21.559446
2054 21.807456
2054.5 21.68618
2055 21.856907
2055.5 21.751702
2056 21.67567
2056.5 21.674885
2057 21.659477
2057.5 21.884412
2058 21.657409
2058.5 21.884432
2059 21.657191
2059.5 21.97351
2060 21.710984
2060.5 21.797878
2061 21.656644
2061.5 21.784359
2062 21.871464
2062.5 21.906602
2063 21.981487
2063.5 21.60553
2064 21.904656
2064.5 21.819589
2065 22.010069
2065.5 21.859972
2066 21.909009
2066.5 21.947329
2067 21.875896
2067.5 22.03383
2068 21.776819
2068.5 22.034481
2069 21.818134
2069.5 21.924014
2070 21.814232
2070.5 21.995084
2071 22.015063
2071.5 22.014073
2072 21.99785
2072.5 21.74072
2073 22.048023
2073.5 22.018443
2074 22.165951
2074.5 21.906528
2075 22.132243
2075.5 22.014686
2076 22.083071
2076.5 22.06223
2077 22.07243
2077.5 22.094895
2078 22.07648
2078.5 22.261037
2079 21.980369
2079.5 22.200824
2080 22.07761
2080.5 22.14819
2081 22.041911
2081.5 22.097924
2082 22.173987
2082.5 22.213103
2083 22.191575
2083.5 22.07111
2084 22.330204
2084.5 22.165073
2085 22.253345
2085.5 22.098656
2086 22.259226
2086.5 22.30158
2087 22.364825
2087.5 22.406012
2088 22.152744
2088.5 22.350411
2089 22.182442
2089.5 22.320919
2090 22.244044
2090.5 22.362725
2091 22.276865
2091.5 22.446653
2092 22.405371
2092.5 22.339836
2093 22.455925
2093.5 22.272301
2094 22.356428
2094.5 22.168383
2095 22.523372
2095.5 22.355658
2096 22.448935
2096.5 22.414434
2097 22.517398
2097.5 22.567959
2098 22.420867
2098.5 22.551008
2099 22.387376
2099.5 22.601727
2100 22.428262
2100.5 22.563396
2101 22.526337
2101.5 22.647785
2102 22.533077
2102.5 22.599225
2103 22.63518
2103.5 22.378726
2104 22.56614
2104.5 22.469302
2105 22.730191
2105.5 22.46678
2106 22.646037
2106.5 22.456631
2107 22.619875
2107.5 22.532175
2108 22.558992
2108.5 22.62861
2109 22.557677
2109.5 22.847904
2110 22.654369
2110.5 22.852907
2111 22.620825
2111.5 22.710074
2112 22.709817
2112.5 22.572114
2113 22.796187
2113.5 22.666158
2114 22.83178
2114.5 22.716174
2115 22.954106
2115.5 22.714679
2116 22.939298
2116.5 22.620933
2117 22.729528
2117.5 22.748442
2118 22.741452
2118.5 22.918649
2119 22.79467
2119.5 22.967649
2120 22.867174
2120.5 23.100676
2121 22.83657
2121.5 22.916728
2122 22.74362
2122.5 22.910365
2123 22.976808
2123.5 22.832197
2124 22.95638
2124.5 22.831187
2125 23.015803
2125.5 22.831605
2126 23.013695
2126.5 22.87306
2127 22.974338
2127.5 22.944565
2128 22.968936
2128.5 23.04316
2129 22.841635
2129.5 23.137401
2130 23.064315
2130.5 23.052502
2131 22.790191
2131.5 23.058419
2132 22.943392
2132.5 23.068948
2133 23.070778
2133.5 23.022188
2134 23.159222
2134.5 23.128998
2135 23.218042
2135.5 23.040216
2136 23.090652
2136.5 22.999184
2137 23.122996
2137.5 23.027873
2138 23.02476
2138.5 23.25995
2139 23.235026
2139.5 23.26747
2140 23.094547
2140.5 23.365024
2141 23.144095
2141.5 23.434229
2142 23.128428
2142.5 23.240988
2143 23.126961
2143.5 23.220679
2144 23.264328
2144.5 23.352402
2145 23.476559
2145.5 23.364334
2146 23.441388
2146.5 23.329023
2147 23.347034
2147.5 23.284906
2148 23.355012
2148.5 23.34495
2149 23.23615
2149.5 23.427726
2150 23.244564
2150.5 23.410444
2151 23.154773
2151.5 23.510589
2152 23.31368
2152.5 23.624121
2153 23.458736
2153.5 23.500004
2154 23.390682
2154.5 23.395534
2155 23.449339
2155.5 23.371045
2156 23.644246
2156.5 23.315156
2157 23.681778
2157.5 23.556152
2158 23.573938
2158.5 23.661679
2159 23.582894
2159.5 23.545893
2160 23.394315
2160.5 23.57967
2161 23.484406
2161.5 23.669142
2162 23.51234
2162.5 23.691019
2163 23.597671
2163.5 23.781925
2164 23.730406
2164.5 23.710302
2165 23.662822
2165.5 23.477562
2166 23.695922
2166.5 23.57769
2167 23.750705
2167.5 23.648489
2168 23.850977
2168.5 23.712741
2169 23.71199
2169.5 23.836094
2170 23.673522
2170.5 23.892471
2171 23.74827
2171.5 23.908578
2172 23.567981
2172.5 23.800512
2173 23.647258
2173.5 23.795477
2174 23.744892
2174.5 23.772958
2175 23.826236
2175.5 23.862502
2176 23.922934
2176.5 23.686837
2177 24.044454
2177.5 23.926078
2178 24.052955
2178.5 23.918112
2179 23.888387
2179.5 23.972417
2180 23.876941
2180.5 24.013825
2181 23.827729
2181.5 24.021374
2182 23.869485
2182.5 24.092267
2183 23.905662
2183.5 24.107446
2184 23.992461
2184.5 24.064252
2185 24.084516
2185.5 23.903087
2186 24.140733
2186.5 24.04694
2187 24.065112
2187.5 23.893759
2188 24.24272
2188.5 24.016966
2189 24.183597
2189.5 24.107103
2190 24.183491
2190.5 24.292898
2191 24.153572
2191.5 24.291909
2192 24.000931
2192.5 24.30938
2193 24.136156
2193.5 24.309462
2194 24.146684
2194.5 24.131136
2195 24.193154
2195.5 24.20748
2196 24.31809
2196.5 24.1079
2197 24.314603
2197.5 24.20793
2198 24.398591
2198.5 24.278569
2199 24.346219
2199.5 24.219219
2200 24.315047
2200.5 24.374916
2201 24.303636
2201.5 24.50968
2202 24.30183
2202.5 24.525881
2203 24.401467
2203.5 24.502267
2204 24.396428
2204.5 24.43682
2205 24.351974
2205.5 24.366939
2206 24.5217
2206.5 24.430951
2207 24.50949
2207.5 24.168576
2208 24.487691
2208.5 24.360107
2209 24.557209
2209.5 24.439602
2210 24.592105
2210.5 24.47546
2211 24.633564
2211.5 24.664733
2212 24.556711
2212.5 24.622819
2213 24.468172
2213.5 24.675368
2214 24.489486
2214.5 24.563433
2215 24.62419
2215.5 24.655119
2216 24.736939
2216.5 24.605109
2217 24.803846
2217.5 24.540895
2218 24.732424
2218.5 24.53281
2219 24.724756
2219.5 24.582778
2220 24.781875
2220.5 24.685755
2221 24.767454
2221.5 24.705373
2222 24.58213
2222.5 24.912445
2223 24.701551
2223.5 24.849388
2224 24.693775
2224.5 24.952637
2225 24.890769
2225.5 24.820016
2226 24.739784
2226.5 24.690402
2227 24.861747
2227.5 24.688771
2228 24.87295
2228.5 24.626042
2229 24.928284
2229.5 24.845472
2230 24.94269
2230.5 24.923398
2231 24.921691
2231.5 25.004581
2232 24.998616
2232.5 25.059012
2233 24.749486
2233.5 25.046924
2234 24.895206
2234.5 25.001013
2235 24.899656
2235.5 24.958588
2236 25.119907
2236.5 24.882211
2237 25.152305
2237.5 24.948272
2238 25.208431
2238.5 24.992207
2239 25.009936
2239.5 24.872671
2240 25.01626
2240.5 25.027645
2241 25.025207
2241.5 25.047758
2242 24.893802
2242.5 25.235447
2243 25.099957
2243.5 25.209075
2244 25.112903
2244.5 25.330579
2245 25.111157
2245.5 25.098825
2246 25.109503
2246.5 25.07146
2247 25.224629
2247.5 25.075772
2248 25.259578
2248.5 25.088882
2249 25.264189
2249.5 25.104171
2250 25.321925
2250.5 25.209454
2251 25.219512
2251.5 25.401124
2252 25.211096
2252.5 25.183952
2253 25.039148
2253.5 25.407222
2254 25.162539
2254.5 25.40313
2255 25.243542
2255.5 25.434041
2256 25.320464
2256.5 25.404647
2257 25.482997
2257.5 25.357044
2258 25.404251
2258.5 25.236076
2259 25.361422
2259.5 25.23286
2260 25.379267
2260.5 25.348336
2261 25.394446
2261.5 25.428149
2262 25.34751
2262.5 25.560227
2263 25.434777
2263.5 25.44215
2264 25.187483
2264.5 25.457337
2265 25.256491
2265.5 25.433892
2266 25.396499
2266.5 25.505692
2267 25.542152
2267.5 25.555262
2268 25.716394
2268.5 25.443318
2269 25.753167
2269.5 25.529751
2270 25.646526
2270.5 25.409091
2271 25.415748
2271.5 25.464863
2272 25.587335
2272.5 25.453225
2273 25.407821
2273.5 25.683871
2274 25.414395
2274.5 25.729278
2275 25.508362
2275.5 25.678134
2276 25.663838
2276.5 25.768554
2277 25.607637
2277.5 25.582144
2278 25.653502
2278.5 25.485903
2279 25.720802
2279.5 25.572878
2280 25.841051
2280.5 25.672305
2281 25.781736
2281.5 25.698912
2282 25.669038
2282.5 25.893056
2283 25.73424
2283.5 25.935051
2284 25.634038
2284.5 25.712487
2285 25.416127
2285.5 25.789964
2286 25.640774
2286.5 25.751269
2287 25.730413
2287.5 25.69603
2288 25.914013
2288.5 25.682575
2289 25.941074
2289.5 25.74158
2290 25.955281
2290.5 25.866929
2291 25.978571
2291.5 25.923353
2292 26.059809
2292.5 25.944516
2293 25.707868
2293.5 25.945231
2294 25.755587
2294.5 26.045612
2295 25.855991
2295.5 25.999364
2296 25.766587
2296.5 25.960374
2297 25.934052
2297.5 26.016876
2298 26.097059
2298.5 25.862506
2299 26.245341
2299.5 26.093429
2300 26.03358
2300.5 25.923854
2301 26.138034
2301.5 26.022029
2302 26.003206
2302.5 26.088551
2303 26.026502
2303.5 26.253477
2304 26.048478
2304.5 26.199594
2305 26.093018
2305.5 26.229098
2306 26.031995
2306.5 26.142994
2307 26.078683
2307.5 26.035216
2308 26.270124
2308.5 26.152182
2309 26.269567
2309.5 26.037377
2310 26.27058
2310.5 26.05527
2311 26.291224
2311.5 26.156837
2312 26.310584
2312.5 26.283348
2313 26.195404
2313.5 26.388326
2314 26.220492
2314.5 26.41629
2315 26.272461
2315.5 26.440954
2316 26.340726
2316.5 26.438713
2317 26.419845
2317.5 26.447129
2318 26.435691
2318.5 26.243979
2319 26.485285
2319.5 26.28738
2320 26.451215
2320.5 26.166052
2321 26.529565
2321.5 26.326704
2322 26.513618
2322.5 26.391149
2323 26.501
2323.5 26.537097
2324 26.524478
2324.5 26.580957
2325 26.501456
2325.5 26.660708
2326 26.518023
2326.5 26.647338
2327 26.59857
2327.5 26.658595
2328 26.66468
2328.5 26.723015
2329 26.811868
2329.5 26.423353
2330 26.672411
2330.5 26.490003
2331 26.718858
2331.5 26.504987
2332 26.75347
2332.5 26.561043
2333 26.733404
2333.5 26.676011
2334 26.635185
2334.5 26.818123
2335 26.67253
2335.5 26.899475
2336 26.716775
2336.5 26.856738
2337 26.792642
2337.5 26.975396
2338 26.903117
2338.5 26.80968
2339 26.924419
2339.5 26.814806
2340 26.853186
2340.5 26.64558
2341 26.856953
2341.5 26.686707
2342 26.916587
2342.5 26.813635
2343 26.874185
2343.5 26.912093
2344 26.767826
2344.5 26.933029
2345 26.81542
2345.5 27.058923
2346 26.84707
2346.5 27.089387
2347 26.936036
2347.5 27.0394
2348 27.090579
2348.5 27.037799
2349 27.051386
2349.5 26.858395
2350 27.071604
2350.5 26.88137
2351 27.171037
2351.5 27.011514
2352 27.166763
2352.5 27.024135
2353 27.111179
2353.5 27.179089
2354 27.098745
2354.5 27.223909
2355 26.838058
2355.5 27.234182
2356 27.081743
2356.5 27.159962
2357 27.045813
2357.5 27.141622
2358 27.18226
2358.5 27.169073
2359 27.239579
2359.5 27.070636
2360 27.361485
2360.5 27.169272
2361 27.33022
2361.5 27.170667
2362 27.37051
2362.5 27.329201
2363 27.386415
2363.5 27.387688
2364 27.379763
2364.5 27.435496
2365 27.238315
2365.5 27.327502
2366 27.131701
2366.5 27.40756
2367 27.327335
2367.5 27.436775
2368 27.437881
2368.5 27.347484
2369 27.432153
2369.5 27.388665
2370 27.455124
2370.5 27.357405
2371 27.415606
2371.5 27.387992
2372 27.553651
2372.5 27.254394
2373 27.445415
2373.5 27.44191
2374 27.580032
2374.5 27.55698
2375 27.40719
2375.5 27.631134
2376 27.391928
2376.5 27.533931
2377 27.365962
2377.5 27.614605
2378 27.522734
2378.5 27.608868
2379 27.582094
2379.5 27.626395
2380 27.667722
2380.5 27.595064
2381 27.688009
2381.5 27.640349
2382 27.75088
2382.5 27.578285
2383 27.750802
2383.5 27.583086
2384 27.543107
2384.5 27.761453
2385 27.676868
2385.5 27.700347
2386 27.469581
2386.5 27.783456
2387 27.587584
2387.5 27.915487
2388 27.673128
2388.5 27.941045
2389 27.814367
2389.5 27.896863
2390 27.782944
2390.5 27.681619
2391 27.955821
2391.5 27.7767
2392 27.976829
2392.5 27.693564
2393 27.837083
2393.5 27.833122
2394 27.919731
2394.5 27.822191
2395 27.846408
2395.5 28.023523
2396 27.869967
2396.5 28.148472
2397 27.670667
2397.5 27.924389
2398 27.773821
2398.5 27.954087
2399 27.953216
2399.5 27.89973
2400 27.920195
2400.5 27.938169
2401 28.045616
2401.5 27.950349
2402 28.206691
2402.5 28.07923
2403 28.217441
2403.5 27.95454
2404 27.931014
2404.5 28.058875
2405 27.994561
2405.5 28.12542
2406 27.985501
2406.5 28.240335
2407 27.859506
2407.5 28.249055
2408 28.06094
2408.5 28.122908
2409 28.10801
2409.5 28.111589
2410 28.266346
2410.5 28.156585
2411 28.384066
2411.5 28.160536
2412 28.310645
2412.5 28.154793
2413 28.271326
2413.5 28.15755
2414 28.277469
2414.5 28.295568
2415 28.278556
2415.5 28.466153
2416 28.100321
2416.5 28.348869
2417 28.164351
2417.5 28.359231
2418 28.202802
2418.5 28.275368
2419 28.321898
2419.5 28.382853
2420 28.390852
2420.5 28.139958
2421 28.43723
2421.5 28.289372
2422 28.431597
2422.5 28.338701
2423 28.591767
2423.5 28.451821
2424 28.603688
2424.5 28.516951
2425 28.518799
2425.5 28.527302
2426 28.404576
2426.5 28.555933
2427 28.330088
2427.5 28.610235
2428 28.363851
2428.5 28.610718
2429 28.375188
2429.5 28.495872
2430 28.677815
2430.5 28.57866
2431 28.720942
2431.5 28.405017
2432 28.678632
2432.5 28.386208
2433 28.68191
2433.5 28.508502
2434 28.708464
2434.5 28.52692
2435 28.733525
2435.5 28.708005
2436 28.599742
2436.5 28.725356
2437 28.593612
2437.5 28.715506
2438 28.598085
2438.5 28.776389
2439 28.679261
2439.5 28.775841
2440 28.783289
2440.5 28.669071
2441 28.845507
2441.5 28.720948
2442 28.793067
2442.5 28.506333
2443 28.839111
2443.5 28.725588
2444 28.827193
2444.5 28.69496
2445 28.70135
2445.5 28.691423
2446 28.764597
2446.5 28.804579
2447 28.738338
2447.5 29.005781
2448 28.7972
2448.5 29.013121
2449 28.941461
2449.5 28.954744
2450 28.829509
2450.5 28.902629
2451 29.007176
2451.5 28.829616
2452 28.918096
2452.5 28.775784
2453 29.101649
2453.5 28.83814
2454 29.00874
2454.5 28.817287
2455 28.938699
2455.5 28.912961
2456 28.98623
2456.5 28.979558
2457 28.845254
2457.5 29.116359
2458 28.942978
2458.5 29.279059
2459 29.076743
2459.5 29.281896
2460 29.147264
2460.5 28.962228
2461 29.073486
2461.5 28.927138
2462 29.225942
2462.5 28.988647
2463 29.192758
2463.5 29.020226
2464 29.285428
2464.5 29.146475
2465 29.199234
2465.5 29.223612
2466 29.143608
2466.5 29.321462
2467 29.283133
2467.5 29.425123
2468 29.092309
2468.5 29.315057
2469 29.275239
2469.5 29.268482
2470 29.181018
2470.5 29.252642
2471 29.302371
2471.5 29.256895
2472 29.508382
2472.5 29.198822
2473 29.446858
2473.5 29.267734
2474 29.426631
2474.5 29.258808
2475 29.29329
2475.5 29.341868
2476 29.295164
2476.5 29.327849
2477 29.240376
2477.5 29.436567
2478 29.35228
2478.5 29.473704
2479 29.286382
2479.5 29.551169
2480 29.421523
2480.5 29.614803
2481 29.590771
2481.5 29.398519
2482 29.505596
2482.5 29.480395
2483 29.573581
2483.5 29.474762
2484 29.662359
2484.5 29.569969
2485 29.71884
2485.5 29.51602
2486 29.487029
2486.5 29.597524
2487 29.607406
2487.5 29.607254
2488 29.456487
2488.5 29.70778
2489 29.537234
2489.5 29.685748
2490 29.576084
2490.5 29.673466
2491 29.664457
2491.5 29.73175
2492 29.743674
2492.5 29.540014
2493 29.880297
2493.5 29.643956
2494 29.836547
2494.5 29.694161
2495 29.805249
2495.5 29.787117
2496 29.847911
2496.5 29.764026
2497 29.608375
2497.5 29.728192
2498 29.639509
2498.5 29.857039
2499 29.607236
2499.5 29.910648
2500 29.676703
2500.5 29.858911
2501 29.873347
2501.5 29.824197
2502 29.900748
2502.5 29.768783
2503 29.977316
2503.5 29.884231
2504 30.078629
2504.5 29.845998
2505 30.094197
2505.5 29.98684
2506 29.911751
2506.5 29.993382
2507 29.982474
2507.5 30.003941
2508 29.822153
2508.5 30.054453
2509 29.829186
2509.5 30.108452
2510 29.88947
2510.5 30.128399
2511 30.023253
2511.5 29.986504
2512 29.957744
2512.5 29.992449
2513 30.114934
2513.5 29.863024
2514 30.166361
2514.5 30.027729
2515 30.173102
2515.5 30.184314
2516 30.291441
2516.5 30.282012
2517 30.184361
2517.5 30.263212
2518 30.170947
2518.5 30.334172
2519 30.043894
2519.5 30.246454
2520 29.981589
2520.5 30.296457
2521 30.224305
2521.5 30.151173
2522 30.226043
2522.5 30.154139
2523 30.407092
2523.5 30.180404
2524 30.475137
2524.5 30.234748
2525 30.369282
2525.5 30.242065
2526 30.27029
2526.5 30.352581
2527 30.274785
2527.5 30.331945
2528 30.352372
2528.5 30.470228
2529 30.244872
2529.5 30.460268
2530 30.32544
2530.5 30.295929
2531 30.1824
2531.5 30.266339
2532 30.47294
2532.5 30.483726
2533 30.58852
2533.5 30.273819
2534 30.642232
2534.5 30.468687
2535 30.610952
2535.5 30.582449
2536 30.740467
2536.5 30.662569
2537 30.549711
2537.5 30.622375
2538 30.391744
2538.5 30.606207
2539 30.504763
2539.5 30.725554
2540 30.488718
2540.5 30.710053
2541 30.676648
2541.5 30.597895
2542 30.603889
2542.5 30.449101
2543 30.71087
2543.5 30.652031
2544 30.662495
2544.5 30.562708
2545 30.802608
2545.5 30.527675
2546 30.640304
2546.5 30.612472
2547 30.597302
2547.5 30.705589
2548 30.632803
2548.5 30.754143
2549 30.567616
2549.5 30.744249
2550 30.669266
2550.5 30.8164
2551 30.693376
2551.5 30.690899
2552 30.891049
2552.5 30.833364
2553 30.917501
2553.5 30.667663
2554 31.10325
2554.5 30.809197
2555 30.986559
2555.5 30.735999
2556 30.965877
2556.5 30.920985
2557 31.058171
2557.5 31.020057
2558 31.056637
2558.5 31.167689
2559 31.030273
2559.5 31.191915
2560 30.93482
2560.5 31.200308
2561 31.049928
2561.5 31.040424
2562 30.943015
2562.5 30.952021
2563 30.919397
2563.5 30.752474
2564 30.989897
2564.5 30.606541
2565 30.88209
2565.5 30.747718
2566 31.085354
2566.5 30.93161
2567 31.010607
2567.5 30.976638
2568 31.01137
2568.5 31.169912
2569 31.052664
2569.5 31.294158
2570 31.027558
2570.5 31.257331
2571 30.999321
2571.5 31.078869
2572 31.040257
2572.5 31.184372
2573 31.359822
2573.5 31.179437
2574 31.346712
2574.5 30.998534
2575 31.339419
2575.5 31.030181
2576 31.280693
2576.5 31.173941
2577 31.377485
2577.5 31.217504
2578 31.119415
2578.5 31.222034
2579 31.166354
2579.5 31.371126
2580 31.284302
2580.5 31.527334
2581 31.262609
2581.5 31.518531
2582 31.338346
2582.5 31.332141
2583 31.42004
2583.5 31.331256
2584 31.531501
2584.5 31.264848
2585 31.408277
2585.5 31.041533
2586 31.37486
2586.5 31.239599
2587 31.394976
2587.5 31.35803
2588 31.289887
2588.5 31.394017
2589 31.245193
2589.5 31.448337
2590 31.288657
2590.5 31.569207
2591 31.349358
2591.5 31.521854
2592 31.424233
2592.5 31.532043
2593 31.61335
2593.5 31.427488
2594 31.687719
2594.5 31.346104
2595 31.596428
2595.5 31.297529
2596 31.355911
2596.5 31.121412
2597 31.372264
2597.5 31.322008
2598 31.521702
2598.5 31.50706
2599 31.244707
2599.5 31.680748
2600 31.61757
2600.5 31.761807
2601 31.678891
2601.5 31.927377
2602 31.849369
2602.5 31.875917
2603 31.924504
2603.5 31.774864
2604 31.874788
2604.5 31.76088
2605 31.905952
2605.5 31.585693
2606 31.604949
2606.5 31.454179
2607 31.478485
2607.5 31.496817
2608 31.298953
2608.5 31.61993
2609 31.559584
2609.5 31.858826
2610 31.562734
2610.5 31.825328
2611 31.732601
2611.5 31.867081
2612 31.820658
2612.5 32.016698
2613 31.942102
2613.5 31.910962
2614 32.084274
2614.5 31.888366
2615 32.150388
2615.5 31.841308
2616 32.247621
2616.5 31.967041
2617 32.067251
2617.5 31.945702
2618 31.794298
2618.5 31.777546
2619 31.649083
2619.5 31.830978
2620 31.559041
2620.5 31.651998
2621 31.496286
2621.5 31.506774
2622 31.83637
2622.5 31.816253
2623 31.900784
2623.5 31.692344
2624 31.979898
2624.5 31.770495
2625 32.227823
2625.5 32.027894
2626 32.126197
2626.5 32.058835
2627 32.121995
2627.5 32.226261
2628 32.09303
2628.5 32.165855
2629 32.039934
2629.5 32.099685
2630 31.820685
2630.5 31.896481
2631 31.708023
2631.5 31.658527
2632 31.826395
2632.5 31.537917
2633 32.017106
2633.5 31.71992
2634 32.108304
2634.5 31.821531
2635 32.284117
2635.5 32.039168
2636 32.279596
2636.5 32.320344
2637 32.462716
2637.5 32.42605
2638 32.283711
2638.5 32.520714
2639 32.367793
2639.5 32.57772
2640 32.302102
2640.5 32.569316
2641 32.508546
2641.5 32.464588
2642 32.561207
2642.5 32.480913
2643 32.639155
2643.5 32.325399
2644 32.580402
2644.5 32.273608
2645 32.655057
2645.5 32.515678
2646 32.634613
2646.5 32.502925
2647 32.450709
2647.5 32.630572
2648 32.48893
2648.5 32.609087
2649 32.397085
2649.5 32.791674
2650 32.671526
2650.5 32.873052
2651 32.743892
2651.5 32.815883
2652 32.854494
2652.5 32.773024
2653 32.88545
2653.5 32.602188
2654 32.70539
2654.5 32.697356
2655 32.79373
2655.5 32.518768
2656 32.647344
2656.5 32.707018
2657 32.779193
2657.5 32.775807
2658 32.68455
2658.5 33.009639
2659 32.920411
2659.5 33.08419
2660 32.799473
2660.5 33.192053
2661 33.133259
2661.5 33.182862
2662 33.272973
2662.5 33.032376
2663 33.296105
2663.5 33.167741
2664 33.430991
2664.5 33.222619
2665 33.305302
2665.5 33.063352
2666 32.9763
2666.5 32.854301
2667 32.735828
2667.5 32.764161
2668 32.70376
2668.5 32.719341
2669 32.306319
2669.5 32.770112
2670 32.497758
2670.5 32.613495
2671 32.501841
2671.5 32.591552
2672 32.326937
2672.5 32.375211
2673 32.504129
2673.5 32.397902
2674 32.704043
2674.5 32.651848
2675 32.756338
2675.5 32.579741
2676 32.733458
2676.5 32.641712
2677 32.713827
2677.5 32.706937
2678 32.500577
2678.5 32.789943
2679 32.631296
2679.5 32.712913
2680 32.487676
2680.5 32.710728
2681 32.496685
2681.5 32.598349
2682 32.699049
2682.5 32.766697
2683 32.813781
2683.5 32.823184
2684 33.12183
2684.5 32.899392
2685 33.253956
2685.5 33.104986
2686 33.241558
2686.5 33.033025
2687 33.038008
2687.5 33.075279
2688 32.994977
2688.5 33.124062
2689 32.905024
2689.5 33.284354
2690 33.130342
2690.5 33.320019
2691 33.13548
2691.5 33.332101
2692 33.221373
2692.5 33.192405
2693 33.32606
2693.5 33.316973
2694 33.470383
2694.5 33.263683
2695 33.470389
2695.5 33.081332
2696 33.215013
2696.5 33.115661
2697 33.166081
2697.5 33.143303
2698 32.927024
2698.5 33.243749
2699 33.04655
2699.5 33.45204
2700 33.235118
2700.5 33.652148
2701 33.421668
2701.5 33.579668
2702 33.437309
2702.5 33.457524
2703 33.51728
2703.5 33.396271
2704 33.704147
2704.5 33.508676
2705 33.730847
2705.5 33.613658
2706 33.804533
2706.5 33.668146
2707 33.694574
2707.5 33.779505
2708 33.616266
2708.5 33.791962
2709 33.51053
2709.5 33.761504
2710 33.500603
2710.5 33.777952
2711 33.380288
2711.5 33.4867
2712 33.33759
2712.5 33.266595
2713 33.256263
2713.5 33.196452
2714 33.445284
2714.5 33.254796
2715 33.646679
2715.5 33.427304
2716 33.671689
2716.5 33.634135
2717 33.880985
2717.5 33.846101
2718 33.827132
2718.5 34.001049
2719 33.789754
2719.5 33.965492
2720 33.754438
2720.5 33.948001
2721 33.534798
2721.5 33.54305
2722 33.399275
2722.5 33.262229
2723 33.096823
2723.5 32.651171
2724 33.035287
2724.5 32.856837
2725 32.943583
2725.5 32.843831
2726 33.195511
2726.5 33.161703
2727 33.241293
2727.5 33.457857
2728 33.515814
2728.5 33.754897
2729 33.657897
2729.5 33.767086
2730 33.684561
2730.5 33.90958
2731 33.835909
2731.5 34.063369
2732 34.047815
2732.5 34.040335
2733 34.184632
2733.5 34.158149
2734 34.39841
2734.5 33.979046
2735 34.397814
2735.5 34.223339
2736 34.31401
2736.5 34.113249
2737 34.218034
2737.5 34.126413
2738 33.86023
2738.5 33.899698
2739 33.649376
2739.5 33.813968
2740 33.585957
2740.5 33.722857
2741 33.384544
2741.5 33.409137
2742 33.258435
2742.5 33.249319
2743 33.290967
2743.5 33.133775
2744 33.369446
2744.5 33.323124
2745 33.538276
2745.5 33.418754
2746 33.83984
2746.5 33.608314
2747 33.80622
2747.5 33.880284
2748 33.880123
2748.5 34.061253
2749 34.052435
2749.5 34.435606
2750 34.23954
2750.5 34.400627
2751 34.264261
2751.5 34.486917
2752 34.245604
2752.5 34.248227
2753 34.368381
2753.5 34.25909
2754 34.373906
2754.5 34.018007
2755 34.329632
2755.5 33.893529
2756 34.13454
2756.5 33.782056
2757 33.883899
2757.5 33.857334
2758 33.862799
2758.5 33.874685
2759 33.692461
2759.5 33.8458
2760 33.5287
2760.5 33.808866
2761 33.683935
2761.5 34.029239
2762 34.08215
2762.5 34.21112
2763 34.297901
2763.5 34.169671
2764 34.376332
2764.5 33.93459
2765 34.223044
2765.5 33.791515
2766 34.048203
2766.5 33.740401
2767 33.913109
2767.5 33.791518
2768 33.67838
2768.5 33.908981
2769 33.567393
2769.5 33.911696
2770 33.590925
2770.5 33.927163
2771 33.707547
2771.5 34.000248
2772 33.954334
2772.5 33.964169
2773 34.14869
2773.5 33.974174
2774 34.156704
2774.5 33.939406
2775 34.169561
2775.5 33.878005
2776 34.247768
2776.5 34.041613
2777 34.202477
2777.5 34.169239
2778 34.086788
2778.5 34.295395
2779 34.14638
2779.5 34.25217
2780 34.125689
2780.5 34.400907
2781 34.209368
2781.5 34.1708
2782 34.070367
2782.5 34.132832
2783 34.101945
2783.5 33.990368
2784 34.151679
2784.5 33.915672
2785 34.232721
2785.5 33.969852
2786 34.184963
2786.5 34.054503
2787 34.094831
2787.5 34.018615
2788 33.95237
2788.5 34.073615
2789 33.790046
2789.5 34.235847
2790 34.106058
2790.5 34.196249
2791 34.005535
2791.5 34.363994
2792 34.08016
2792.5 34.086123
2793 34.023133
2793.5 34.044197
2794 34.217763
2794.5 34.306365
2795 34.505337
2795.5 34.332716
2796 34.52858
2796.5 34.412688
2797 34.602898
2797.5 34.489816
2798 34.381792
2798.5 34.599152
2799 34.48925
2799.5 34.906423
2800 34.805128
##END=
