##TITLE= W6911m-2-3mm-030924
##JCAMP-DX= 4.24
##DATA TYPE= UV/VIS SPECTRUM
##ORIGIN=  Lambda-SPX/P Scan
##OWNER= Optiplex/OPTIPLEX-755
##DATE= 03.09.2024 13:05:46
##SPECTROMETER/DATA SYSTEM= Lambda 19 UV/Vis/NIR
##SAMPLE DESCRIPTION= 030924
##DELTAX= 0.5
##XUNITS= NANOMETERS
##YUNITS= TRANSMITTANCE
$$COMMENT= RTUNITS 0-1
##XFACTOR= 1.0
##YFACTOR= 0.01
##FIRSTX= 200
##LASTX= 2800
##NPOINTS= 5201
##FIRSTY= 0.000227
##MAXY= 0.284889
##MINY= 0.000222
##XYDATA= (XY..XY)
200 0.022709
200.5 0.024913
201 0.027534
201.5 0.025351
202 0.024184
202.5 0.022456
203 0.032007
203.5 0.027426
204 0.042335
204.5 0.022186
205 0.036342
205.5 0.030786
206 0.030656
206.5 0.037964
207 0.035857
207.5 0.044508
208 0.042614
208.5 0.044888
209 0.033469
209.5 0.052413
210 0.038806
210.5 0.052158
211 0.042058
211.5 0.053615
212 0.059157
212.5 0.068668
213 0.066909
213.5 0.062052
214 0.069722
214.5 0.076547
215 0.082309
215.5 0.081071
216 0.091438
216.5 0.102449
217 0.099429
217.5 0.106888
218 0.105725
218.5 0.134218
219 0.129733
219.5 0.149001
220 0.134253
220.5 0.168046
221 0.165259
221.5 0.195113
222 0.195721
222.5 0.206547
223 0.236132
223.5 0.248219
224 0.270474
224.5 0.280242
225 0.3135
225.5 0.32778
226 0.358378
226.5 0.378196
227 0.411816
227.5 0.440655
228 0.466444
228.5 0.500883
229 0.529017
229.5 0.570521
230 0.583272
230.5 0.620187
231 0.644404
231.5 0.682899
232 0.71107
232.5 0.742177
233 0.777942
233.5 0.79187
234 0.819203
234.5 0.828484
235 0.85712
235.5 0.862881
236 0.87875
236.5 0.892283
237 0.90487
237.5 0.913611
238 0.92407
238.5 0.937452
239 0.924326
239.5 0.938074
240 0.926057
240.5 0.937904
241 0.93138
241.5 0.939848
242 0.934147
242.5 0.924038
243 0.92162
243.5 0.904022
244 0.922805
244.5 0.904657
245 0.90784
245.5 0.876727
246 0.88965
246.5 0.867956
247 0.876344
247.5 0.867608
248 0.860388
248.5 0.861591
249 0.850905
249.5 0.850954
250 0.838671
250.5 0.841668
251 0.819112
251.5 0.835999
252 0.801648
252.5 0.802605
253 0.799765
253.5 0.786087
254 0.783007
254.5 0.777673
255 0.776123
255.5 0.758494
256 0.763098
256.5 0.75808
257 0.738589
257.5 0.737339
258 0.73067
258.5 0.741654
259 0.727382
259.5 0.723117
260 0.701737
260.5 0.717177
261 0.698358
261.5 0.705067
262 0.692092
262.5 0.694953
263 0.691104
263.5 0.693468
264 0.682754
264.5 0.676187
265 0.686461
265.5 0.66936
266 0.673291
266.5 0.669809
267 0.666728
267.5 0.666887
268 0.663914
268.5 0.663203
269 0.647511
269.5 0.658153
270 0.642434
270.5 0.65778
271 0.645684
271.5 0.645694
272 0.65255
272.5 0.65554
273 0.649263
273.5 0.640524
274 0.648179
274.5 0.64321
275 0.655708
275.5 0.648622
276 0.649674
276.5 0.645152
277 0.65059
277.5 0.650018
278 0.644467
278.5 0.65811
279 0.653401
279.5 0.656497
280 0.652148
280.5 0.658163
281 0.648906
281.5 0.663847
282 0.658366
282.5 0.664353
283 0.665386
283.5 0.66046
284 0.676288
284.5 0.674204
285 0.683204
285.5 0.663599
286 0.690035
286.5 0.681613
287 0.68854
287.5 0.680835
288 0.690032
288.5 0.694247
289 0.706641
289.5 0.708462
290 0.698733
290.5 0.721871
291 0.715492
291.5 0.727083
292 0.728366
292.5 0.735916
293 0.745106
293.5 0.747223
294 0.754402
294.5 0.752899
295 0.777065
295.5 0.761497
296 0.788485
296.5 0.787562
297 0.787096
297.5 0.809448
298 0.818891
298.5 0.827911
299 0.810271
299.5 0.844879
300 0.846475
300.5 0.863129
301 0.872818
301.5 0.8799
302 0.885287
302.5 0.906366
303 0.919357
303.5 0.931236
304 0.955964
304.5 0.954847
305 0.96626
305.5 0.982969
306 0.997244
306.5 1.00513
307 1.020969
307.5 1.031825
308 1.046224
308.5 1.062364
309 1.081642
309.5 1.123381
310 1.110397
310.5 1.130804
311 1.137343
311.5 1.177229
312 1.183377
312.5 1.209863
313 1.229656
313.5 1.246083
314 1.271173
314.5 1.297597
315 1.317342
315.5 1.337627
316 1.363824
316.5 1.377945
317 1.422132
317.5 1.434233
318 1.445985
318.5 1.468203
319 1.451844
319.5 1.566849
320 1.562071
320.5 1.593743
321 1.614855
321.5 1.64586
322 1.687657
322.5 1.695963
323 1.731002
323.5 1.756215
324 1.785796
324.5 1.812234
325 1.845385
325.5 1.876267
326 1.901151
326.5 1.927313
327 1.950476
327.5 1.979964
328 1.994303
328.5 2.042838
329 2.054924
329.5 2.094948
330 2.112547
330.5 2.158013
331 2.170624
331.5 2.20423
332 2.249291
332.5 2.263756
333 2.311837
333.5 2.314775
334 2.352295
334.5 2.36041
335 2.422488
335.5 2.451778
336 2.473594
336.5 2.516318
337 2.540577
337.5 2.571761
338 2.602677
338.5 2.652925
339 2.674322
339.5 2.708259
340 2.727431
340.5 2.776256
341 2.804163
341.5 2.862503
342 2.887399
342.5 2.902524
343 2.968597
343.5 2.975658
344 3.034855
344.5 3.035911
345 3.107161
345.5 3.132872
346 3.164227
346.5 3.186824
347 3.230339
347.5 3.262779
348 3.319544
348.5 3.349931
349 3.374538
349.5 3.419257
350 3.45316
350.5 3.50883
351 3.531455
351.5 3.589796
352 3.6331
352.5 3.661981
353 3.700142
353.5 3.718698
354 3.785457
354.5 3.79417
355 3.846907
355.5 3.878956
356 3.91897
356.5 3.951618
357 3.985003
357.5 4.017583
358 4.050257
358.5 4.10555
359 4.130681
359.5 4.155687
360 4.219126
360.5 4.260302
361 4.278253
361.5 4.324769
362 4.352806
362.5 4.409718
363 4.433284
363.5 4.472305
364 4.524103
364.5 4.559379
365 4.621078
365.5 4.620163
366 4.684268
366.5 4.718993
367 4.745742
367.5 4.80695
368 4.856764
368.5 4.899624
369 4.94704
369.5 4.985353
370 5.01746
370.5 5.09475
371 5.126103
371.5 5.217288
372 5.259425
372.5 5.292415
373 5.35705
373.5 5.431878
374 5.516396
374.5 5.551042
375 5.616717
375.5 5.664809
376 5.743757
376.5 5.828023
377 5.89654
377.5 5.928751
378 5.97943
378.5 6.100896
379 6.099971
379.5 6.312789
380 6.40124
380.5 6.466495
381 6.54647
381.5 6.629144
382 6.747098
382.5 6.803831
383 6.87561
383.5 6.955463
384 7.061236
384.5 7.164354
385 7.224889
385.5 7.250497
386 7.384733
386.5 7.45064
387 7.540319
387.5 7.65085
388 7.71933
388.5 7.771964
389 7.888554
389.5 7.961023
390 7.999585
390.5 8.061613
391 8.148478
391.5 8.24134
392 8.315621
392.5 8.346206
393 8.447251
393.5 8.454458
394 8.51192
394.5 8.579035
395 8.55418
395.5 8.699527
396 8.720163
396.5 8.782808
397 8.787584
397.5 8.738879
398 8.859809
398.5 8.926257
399 8.939555
399.5 8.929437
400 8.95045
400.5 9.003388
401 9.040514
401.5 9.025236
402 9.05002
402.5 9.075605
403 9.118623
403.5 9.077149
404 9.057968
404.5 9.101212
405 9.058368
405.5 9.126539
406 9.091388
406.5 9.069243
407 9.081244
407.5 9.1046
408 9.102771
408.5 9.064258
409 9.083466
409.5 9.09057
410 9.083305
410.5 9.069201
411 9.134481
411.5 9.066594
412 9.090107
412.5 9.0895
413 9.053868
413.5 9.059123
414 8.991349
414.5 9.036636
415 9.034703
415.5 9.0053
416 8.987044
416.5 9.031048
417 9.009536
417.5 8.985804
418 8.940953
418.5 8.971034
419 8.965356
419.5 8.951136
420 8.918671
420.5 8.861771
421 8.892319
421.5 8.866918
422 8.853847
422.5 8.871498
423 8.843441
423.5 8.836041
424 8.805661
424.5 8.802039
425 8.785907
425.5 8.784828
426 8.770686
426.5 8.796705
427 8.727668
427.5 8.771084
428 8.714855
428.5 8.715261
429 8.695467
429.5 8.682624
430 8.699707
430.5 8.671365
431 8.643024
431.5 8.65434
432 8.623526
432.5 8.606733
433 8.588054
433.5 8.579103
434 8.566616
434.5 8.550657
435 8.564408
435.5 8.569315
436 8.533497
436.5 8.509605
437 8.51781
437.5 8.510943
438 8.515875
438.5 8.500239
439 8.436976
439.5 8.431622
440 8.462472
440.5 8.432321
441 8.435629
441.5 8.397656
442 8.387271
442.5 8.375785
443 8.362012
443.5 8.344705
444 8.356278
444.5 8.340347
445 8.3094
445.5 8.312777
446 8.267756
446.5 8.291259
447 8.277539
447.5 8.289461
448 8.254541
448.5 8.267566
449 8.222229
449.5 8.245461
450 8.196803
450.5 8.199566
451 8.168834
451.5 8.211948
452 8.200548
452.5 8.181707
453 8.193509
453.5 8.201398
454 8.137854
454.5 8.143005
455 8.103338
455.5 8.121572
456 8.086207
456.5 8.110985
457 8.120191
457.5 8.075776
458 8.069671
458.5 8.067686
459 8.094349
459.5 8.051491
460 8.033214
460.5 8.056843
461 8.056158
461.5 8.044333
462 8.027734
462.5 8.001811
463 7.997054
463.5 8.015583
464 7.992885
464.5 7.979884
465 7.995249
465.5 7.963556
466 7.999241
466.5 7.986313
467 7.975367
467.5 7.938115
468 7.959618
468.5 7.950474
469 7.93961
469.5 7.924282
470 7.961226
470.5 7.931758
471 7.949774
471.5 7.916398
472 7.921886
472.5 7.927885
473 7.917283
473.5 7.938038
474 7.906681
474.5 7.936617
475 7.92217
475.5 7.93497
476 7.906055
476.5 7.941407
477 7.897228
477.5 7.929738
478 7.920244
478.5 7.914798
479 7.916985
479.5 7.887302
480 7.935622
480.5 7.938479
481 7.919569
481.5 7.907102
482 7.907216
482.5 7.936022
483 7.944329
483.5 7.91949
484 7.899021
484.5 7.930469
485 7.929634
485.5 7.925215
486 7.959134
486.5 7.945755
487 7.95816
487.5 7.977689
488 7.950831
488.5 7.996775
489 7.97198
489.5 7.98048
490 7.97512
490.5 7.984973
491 7.992911
491.5 7.984017
492 8.037462
492.5 7.981721
493 8.026058
493.5 7.992419
494 8.007041
494.5 8.01087
495 8.012973
495.5 8.020613
496 8.006193
496.5 8.022525
497 8.020158
497.5 8.026629
498 8.035148
498.5 8.029286
499 8.027873
499.5 8.01441
500 8.074196
500.5 8.025057
501 8.068995
501.5 8.036183
502 8.057367
502.5 8.075707
503 8.060296
503.5 8.041126
504 8.045991
504.5 8.061127
505 8.045735
505.5 8.065591
506 8.070113
506.5 8.058173
507 8.050378
507.5 8.066731
508 8.069413
508.5 8.07339
509 8.066167
509.5 8.06411
510 8.074104
510.5 8.084002
511 8.076175
511.5 8.070523
512 8.09842
512.5 8.087393
513 8.111357
513.5 8.096781
514 8.08874
514.5 8.111244
515 8.097892
515.5 8.11722
516 8.101048
516.5 8.111347
517 8.102559
517.5 8.131842
518 8.111611
518.5 8.105555
519 8.121183
519.5 8.11559
520 8.121184
520.5 8.119906
521 8.126543
521.5 8.110502
522 8.136814
522.5 8.120131
523 8.14607
523.5 8.134752
524 8.133592
524.5 8.139946
525 8.122486
525.5 8.151869
526 8.109465
526.5 8.125967
527 8.130518
527.5 8.140734
528 8.131369
528.5 8.148086
529 8.133107
529.5 8.1348
530 8.129579
530.5 8.126673
531 8.134989
531.5 8.124807
532 8.13315
532.5 8.128842
533 8.1206
533.5 8.111309
534 8.120602
534.5 8.123408
535 8.108225
535.5 8.136085
536 8.13001
536.5 8.11545
537 8.113041
537.5 8.130126
538 8.11569
538.5 8.132336
539 8.126169
539.5 8.12621
540 8.123143
540.5 8.108512
541 8.122287
541.5 8.102068
542 8.121928
542.5 8.111595
543 8.112939
543.5 8.095702
544 8.09639
544.5 8.103996
545 8.112804
545.5 8.107367
546 8.103529
546.5 8.115491
547 8.109892
547.5 8.101518
548 8.096024
548.5 8.076723
549 8.1097
549.5 8.091556
550 8.090807
550.5 8.081874
551 8.087647
551.5 8.084068
552 8.091342
552.5 8.053046
553 8.074383
553.5 8.074868
554 8.064793
554.5 8.062761
555 8.068652
555.5 8.071955
556 8.042549
556.5 8.050093
557 8.063791
557.5 8.045202
558 8.049773
558.5 8.049534
559 8.058302
559.5 8.048825
560 8.042178
560.5 8.025994
561 8.047149
561.5 8.0436
562 8.023939
562.5 8.005092
563 8.008789
563.5 8.021361
564 8.004797
564.5 7.98782
565 8.00295
565.5 8.002744
566 7.992463
566.5 7.966766
567 7.977696
567.5 7.953466
568 7.98157
568.5 7.954013
569 7.96266
569.5 7.961109
570 7.957532
570.5 7.94763
571 7.93184
571.5 7.9379
572 7.937029
572.5 7.93616
573 7.90566
573.5 7.928259
574 7.906346
574.5 7.906134
575 7.921871
575.5 7.911663
576 7.891649
576.5 7.891209
577 7.896905
577.5 7.891016
578 7.89322
578.5 7.883868
579 7.895674
579.5 7.872882
580 7.867298
580.5 7.863189
581 7.861369
581.5 7.876461
582 7.87351
582.5 7.858855
583 7.861203
583.5 7.867087
584 7.835752
584.5 7.829523
585 7.846449
585.5 7.842931
586 7.842513
586.5 7.840955
587 7.834034
587.5 7.817681
588 7.841805
588.5 7.820025
589 7.836138
589.5 7.833865
590 7.834178
590.5 7.8242
591 7.833207
591.5 7.824273
592 7.820508
592.5 7.832026
593 7.812317
593.5 7.835945
594 7.818598
594.5 7.816395
595 7.824162
595.5 7.813644
596 7.825161
596.5 7.798131
597 7.825828
597.5 7.827961
598 7.830788
598.5 7.809746
599 7.822724
599.5 7.810661
600 7.818969
600.5 7.834714
601 7.808273
601.5 7.818127
602 7.808103
602.5 7.863433
603 7.835376
603.5 7.857667
604 7.826807
604.5 7.84893
605 7.842807
605.5 7.829472
606 7.85556
606.5 7.842387
607 7.859357
607.5 7.831185
608 7.854568
608.5 7.870281
609 7.856576
609.5 7.857052
610 7.857507
610.5 7.854883
611 7.863971
611.5 7.870437
612 7.865737
612.5 7.886919
613 7.879388
613.5 7.886723
614 7.894315
614.5 7.900135
615 7.893381
615.5 7.872725
616 7.895627
616.5 7.90315
617 7.902585
617.5 7.904297
618 7.907443
618.5 7.910674
619 7.916412
619.5 7.910903
620 7.910534
620.5 7.935322
621 7.9145
621.5 7.937542
622 7.930829
622.5 7.929485
623 7.926847
623.5 7.957213
624 7.930532
624.5 7.939924
625 7.948467
625.5 7.972635
626 7.946407
626.5 7.944001
627 7.962339
627.5 7.962759
628 7.993762
628.5 7.971027
629 7.987702
629.5 7.968468
630 7.987422
630.5 7.978081
631 7.985067
631.5 7.973434
632 7.979289
632.5 8.008782
633 8.019066
633.5 8.003049
634 8.019405
634.5 8.00043
635 8.047549
635.5 8.011223
636 8.035302
636.5 8.02936
637 8.038521
637.5 8.028159
638 8.052274
638.5 8.033045
639 8.043474
639.5 8.048515
640 8.062706
640.5 8.052958
641 8.066676
641.5 8.049804
642 8.086871
642.5 8.085413
643 8.095681
643.5 8.076351
644 8.082702
644.5 8.088984
645 8.091955
645.5 8.093888
646 8.116274
646.5 8.107018
647 8.114222
647.5 8.1122
648 8.12732
648.5 8.118201
649 8.147132
649.5 8.138885
650 8.146007
650.5 8.161775
651 8.141474
651.5 8.157866
652 8.15807
652.5 8.1613
653 8.151273
653.5 8.160163
654 8.173347
654.5 8.184084
655 8.19291
655.5 8.203627
656 8.200202
656.5 8.197355
657 8.210882
657.5 8.218056
658 8.208217
658.5 8.205112
659 8.220457
659.5 8.235029
660 8.212505
660.5 8.253272
661 8.232842
661.5 8.240207
662 8.243687
662.5 8.245587
663 8.263071
663.5 8.27105
664 8.278844
664.5 8.266214
665 8.2749
665.5 8.281795
666 8.287702
666.5 8.26991
667 8.307904
667.5 8.293518
668 8.307386
668.5 8.307324
669 8.300719
669.5 8.306102
670 8.311751
670.5 8.331792
671 8.334358
671.5 8.327342
672 8.312847
672.5 8.356142
673 8.326712
673.5 8.355493
674 8.331508
674.5 8.355733
675 8.350295
675.5 8.348755
676 8.371859
676.5 8.345729
677 8.367816
677.5 8.377694
678 8.406122
678.5 8.379198
679 8.388907
679.5 8.405682
680 8.382972
680.5 8.415396
681 8.406736
681.5 8.42112
682 8.408552
682.5 8.432271
683 8.421703
683.5 8.424233
684 8.422186
684.5 8.43169
685 8.417988
685.5 8.429246
686 8.446886
686.5 8.461197
687 8.463269
687.5 8.435643
688 8.46971
688.5 8.460187
689 8.493271
689.5 8.478198
690 8.464483
690.5 8.453397
691 8.496283
691.5 8.478372
692 8.482328
692.5 8.474883
693 8.507212
693.5 8.50198
694 8.504242
694.5 8.524428
695 8.517404
695.5 8.530376
696 8.529929
696.5 8.528088
697 8.537876
697.5 8.540132
698 8.535776
698.5 8.53316
699 8.545975
699.5 8.554045
700 8.563854
700.5 8.574457
701 8.57448
701.5 8.572288
702 8.57497
702.5 8.563711
703 8.59186
703.5 8.590233
704 8.602942
704.5 8.584291
705 8.604057
705.5 8.581747
706 8.59304
706.5 8.604033
707 8.614276
707.5 8.584931
708 8.61693
708.5 8.62617
709 8.628102
709.5 8.630249
710 8.629683
710.5 8.625761
711 8.642722
711.5 8.650775
712 8.66406
712.5 8.65101
713 8.663337
713.5 8.653513
714 8.669634
714.5 8.6597
715 8.67472
715.5 8.701124
716 8.675604
716.5 8.682894
717 8.688279
717.5 8.709922
718 8.701249
718.5 8.683702
719 8.70631
719.5 8.711474
720 8.696544
720.5 8.726396
721 8.717597
721.5 8.738673
722 8.729129
722.5 8.738776
723 8.766305
723.5 8.755194
724 8.748272
724.5 8.747091
725 8.776613
725.5 8.774757
726 8.747151
726.5 8.782088
727 8.781263
727.5 8.81454
728 8.792726
728.5 8.795182
729 8.813661
729.5 8.799986
730 8.795321
730.5 8.828773
731 8.837023
731.5 8.816482
732 8.854332
732.5 8.833785
733 8.852393
733.5 8.84888
734 8.848921
734.5 8.872404
735 8.875903
735.5 8.869655
736 8.88193
736.5 8.884979
737 8.890834
737.5 8.875191
738 8.90319
738.5 8.935866
739 8.899765
739.5 8.887047
740 8.937722
740.5 8.898798
741 8.93906
741.5 8.944258
742 8.923401
742.5 8.956716
743 8.942662
743.5 8.92003
744 8.945132
744.5 8.977176
745 8.950885
745.5 8.961862
746 8.99035
746.5 8.980433
747 8.965974
747.5 9.00043
748 8.992622
748.5 8.984246
749 9.007802
749.5 9.013572
750 8.989588
750.5 8.995969
751 9.01161
751.5 9.023117
752 9.0381
752.5 9.058176
753 9.058907
753.5 9.050064
754 9.070225
754.5 9.051322
755 9.094466
755.5 9.099897
756 9.105647
756.5 9.093563
757 9.07321
757.5 9.119123
758 9.071704
758.5 9.100916
759 9.082275
759.5 9.106551
760 9.126927
760.5 9.101836
761 9.133654
761.5 9.091954
762 9.138697
762.5 9.11325
763 9.138685
763.5 9.140886
764 9.196445
764.5 9.159473
765 9.187873
765.5 9.156985
766 9.197795
766.5 9.196861
767 9.200652
767.5 9.179804
768 9.193513
768.5 9.171757
769 9.176687
769.5 9.208985
770 9.248149
770.5 9.200808
771 9.227343
771.5 9.23929
772 9.21377
772.5 9.227712
773 9.23839
773.5 9.234118
774 9.246225
774.5 9.220582
775 9.253023
775.5 9.25566
776 9.267831
776.5 9.284815
777 9.263351
777.5 9.273002
778 9.292952
778.5 9.309658
779 9.316173
779.5 9.346972
780 9.304719
780.5 9.301683
781 9.29876
781.5 9.327473
782 9.328207
782.5 9.345887
783 9.345436
783.5 9.335924
784 9.343308
784.5 9.343863
785 9.355412
785.5 9.407325
786 9.346202
786.5 9.367641
787 9.36687
787.5 9.376555
788 9.401006
788.5 9.396853
789 9.4016
789.5 9.397617
790 9.415808
790.5 9.390602
791 9.417383
791.5 9.438088
792 9.435581
792.5 9.44052
793 9.47936
793.5 9.443988
794 9.464674
794.5 9.468918
795 9.464823
795.5 9.478602
796 9.444489
796.5 9.493024
797 9.452286
797.5 9.486556
798 9.409132
798.5 9.479687
799 9.501982
799.5 9.507646
800 9.488508
800.5 9.462494
801 9.502398
801.5 9.578376
802 9.482157
802.5 9.471901
803 9.542944
803.5 9.504427
804 9.527841
804.5 9.557356
805 9.551519
805.5 9.486795
806 9.545486
806.5 9.593485
807 9.573326
807.5 9.556762
808 9.50867
808.5 9.58195
809 9.617518
809.5 9.570412
810 9.578174
810.5 9.651995
811 9.603133
811.5 9.59823
812 9.611692
812.5 9.597059
813 9.5621
813.5 9.63437
814 9.636211
814.5 9.609684
815 9.622383
815.5 9.62134
816 9.584865
816.5 9.579678
817 9.655907
817.5 9.675633
818 9.613874
818.5 9.64602
819 9.655645
819.5 9.638438
820 9.615483
820.5 9.633467
821 9.616362
821.5 9.646035
822 9.63799
822.5 9.641648
823 9.664414
823.5 9.648464
824 9.644889
824.5 9.645847
825 9.609612
825.5 9.62014
826 9.654126
826.5 9.641433
827 9.676278
827.5 9.66806
828 9.632603
828.5 9.674393
829 9.657092
829.5 9.677696
830 9.622514
830.5 9.683376
831 9.644148
831.5 9.651205
832 9.608813
832.5 9.574777
833 9.616155
833.5 9.607397
834 9.680025
834.5 9.631702
835 9.528413
835.5 9.616946
836 9.621321
836.5 9.587682
837 9.583931
837.5 9.634239
838 9.597043
838.5 9.669022
839 9.622876
839.5 9.616295
840 9.627454
840.5 9.561047
841 9.599664
841.5 9.627131
842 9.615039
842.5 9.601844
843 9.595238
843.5 9.616534
844 9.592142
844.5 9.595303
845 9.610447
845.5 9.658447
846 9.593626
846.5 9.583832
847 9.581136
847.5 9.600197
848 9.573147
848.5 9.601264
849 9.618618
849.5 9.578759
850 9.620123
850.5 9.597304
851 9.589435
851.5 9.562574
852 9.587389
852.5 9.59007
853 9.573434
853.5 9.602728
854 9.703933
854.5 9.629633
855 9.641264
855.5 9.707545
856 9.719802
856.5 9.671311
857 9.629613
857.5 9.634804
858 9.675862
858.5 9.603464
859 9.775423
859.5 9.616072
860 9.594236
860.5 9.691062
861 7.254478
861.5 7.098424
862 7.266387
862.5 7.211479
863 7.177582
863.5 7.09579
864 7.02611
864.5 7.230299
865 7.224465
865.5 7.209766
866 6.871766
866.5 7.230256
867 7.042251
867.5 7.331007
868 7.139141
868.5 7.290298
869 7.166621
869.5 7.1764
870 7.249206
870.5 7.19107
871 7.387062
871.5 7.12671
872 7.303892
872.5 7.213803
873 7.275884
873.5 7.276212
874 7.311425
874.5 7.37597
875 7.185351
875.5 7.361986
876 6.986784
876.5 7.489534
877 7.086192
877.5 7.302921
878 7.151843
878.5 7.214622
879 7.423382
879.5 7.199142
880 7.433642
880.5 7.088379
881 7.409438
881.5 7.22089
882 7.45499
882.5 7.193676
883 7.377204
883.5 7.405287
884 7.190544
884.5 7.41829
885 7.266959
885.5 7.479574
886 7.303905
886.5 7.467885
887 7.249711
887.5 7.347024
888 7.288907
888.5 7.34637
889 7.379727
889.5 7.230915
890 7.514425
890.5 7.261467
891 7.450721
891.5 7.061176
892 7.42735
892.5 7.221552
893 7.441755
893.5 7.383861
894 7.416348
894.5 7.43023
895 7.398661
895.5 7.501674
896 7.328275
896.5 7.627431
897 7.3795
897.5 7.460418
898 7.415372
898.5 7.393599
899 7.57463
899.5 7.338794
900 7.572493
900.5 7.265937
901 7.572149
901.5 7.241216
902 7.549845
902.5 7.365557
903 7.499705
903.5 7.372405
904 7.385934
904.5 7.550967
905 7.395662
905.5 7.51054
906 7.300773
906.5 7.560647
907 7.355589
907.5 7.545915
908 7.503527
908.5 7.505458
909 7.597566
909.5 7.44219
910 7.551008
910.5 7.417569
911 7.611766
911.5 7.462841
912 7.608724
912.5 7.537087
913 7.558658
913.5 7.537702
914 7.494348
914.5 7.533744
915 7.317308
915.5 7.683172
916 7.366277
916.5 7.642013
917 7.414371
917.5 7.687943
918 7.560939
918.5 7.591084
919 7.518087
919.5 7.559408
920 7.59516
920.5 7.522006
921 7.601243
921.5 7.507145
922 7.625502
922.5 7.516512
923 7.639103
923.5 7.655658
924 7.504088
924.5 7.687744
925 7.503554
925.5 7.744342
926 7.350127
926.5 7.684033
927 7.447667
927.5 7.618307
928 7.573409
928.5 7.646234
929 7.704334
929.5 7.475115
930 7.731877
930.5 7.547073
931 7.714328
931.5 7.525402
932 7.766265
932.5 7.607691
933 7.709783
933.5 7.691479
934 7.627659
934.5 7.819387
935 7.553457
935.5 7.735144
936 7.57549
936.5 7.824469
937 7.613581
937.5 7.72273
938 7.712846
938.5 7.630154
939 7.793134
939.5 7.686254
940 7.772546
940.5 7.472438
941 7.809737
941.5 7.604121
942 7.885166
942.5 7.567553
943 7.716932
943.5 7.68142
944 7.751148
944.5 7.883624
945 7.687011
945.5 7.809399
946 7.658058
946.5 7.885361
947 7.686777
947.5 7.710904
948 7.776644
948.5 7.768386
949 7.7688
949.5 7.626031
950 7.792766
950.5 7.684042
951 7.958145
951.5 7.616049
952 7.826343
952.5 7.65099
953 7.865977
953.5 7.733346
954 7.810495
954.5 7.903435
955 7.665547
955.5 7.84689
956 7.742093
956.5 7.923782
957 7.710844
957.5 7.897054
958 7.785307
958.5 7.775697
959 7.900721
959.5 7.696937
960 8.047567
960.5 7.692652
961 7.845871
961.5 7.625249
962 7.840379
962.5 7.742294
963 7.903334
963.5 7.81038
964 7.668211
964.5 7.930637
965 7.774917
965.5 7.841262
966 7.493607
966.5 7.895919
967 7.748166
967.5 8.050861
968 7.885206
968.5 7.928392
969 7.839903
969.5 7.943829
970 7.891457
970.5 7.865385
971 7.98144
971.5 7.792123
972 7.934108
972.5 7.797459
973 7.903904
973.5 7.874281
974 7.886398
974.5 7.976329
975 7.688621
975.5 8.01717
976 7.703437
976.5 8.043528
977 7.704382
977.5 7.991653
978 7.76146
978.5 7.904158
979 7.944787
979.5 7.842415
980 8.003804
980.5 7.694826
981 8.067782
981.5 7.898264
982 8.000797
982.5 7.933737
983 7.95637
983.5 8.005086
984 7.93094
984.5 8.068699
985 7.847492
985.5 8.151588
986 7.987443
986.5 8.055136
987 7.704446
987.5 8.035715
988 7.974792
988.5 7.917944
989 7.923083
989.5 7.722414
990 8.022602
990.5 7.971974
991 8.075736
991.5 7.785479
992 8.110085
992.5 7.830825
993 8.01529
993.5 8.012458
994 7.989282
994.5 8.055592
995 7.969283
995.5 8.017223
996 7.948861
996.5 8.161568
997 7.949417
997.5 7.9956
998 8.036719
998.5 7.998888
999 8.046196
999.5 7.964348
1000 8.169809
1000.5 7.892952
1001 8.214713
1001.5 7.791781
1002 8.149596
1002.5 7.924005
1003 8.105116
1003.5 7.999421
1004 7.962487
1004.5 8.140569
1005 7.925434
1005.5 8.113573
1006 8.004401
1006.5 8.273394
1007 8.073737
1007.5 8.123607
1008 8.112376
1008.5 8.1434
1009 8.119688
1009.5 7.951473
1010 8.262023
1010.5 7.968641
1011 8.237769
1011.5 8.049773
1012 8.158026
1012.5 8.002061
1013 7.983828
1013.5 8.148853
1014 8.101317
1014.5 8.119775
1015 7.949787
1015.5 8.318124
1016 8.031863
1016.5 8.224232
1017 7.958048
1017.5 8.159386
1018 8.130788
1018.5 8.204737
1019 8.217013
1019.5 8.225708
1020 8.233208
1020.5 8.164851
1021 8.183806
1021.5 8.112901
1022 8.309703
1022.5 8.161277
1023 8.20624
1023.5 8.186511
1024 8.027623
1024.5 8.215009
1025 8.156428
1025.5 8.302906
1026 7.894712
1026.5 8.179027
1027 7.967688
1027.5 8.255596
1028 8.138321
1028.5 8.209457
1029 8.197109
1029.5 8.086326
1030 8.339328
1030.5 8.072049
1031 8.40631
1031.5 8.084536
1032 8.338295
1032.5 8.223437
1033 8.194382
1033.5 8.261178
1034 8.32398
1034.5 8.41673
1035 8.141011
1035.5 8.381782
1036 8.160152
1036.5 8.392937
1037 8.187623
1037.5 8.327653
1038 8.116139
1038.5 8.275695
1039 8.352999
1039.5 8.212035
1040 8.294535
1040.5 8.064062
1041 8.470766
1041.5 8.257861
1042 8.339148
1042.5 8.190639
1043 8.386656
1043.5 8.345121
1044 8.382791
1044.5 8.355316
1045 8.253518
1045.5 8.393335
1046 8.172228
1046.5 8.402547
1047 8.261615
1047.5 8.381404
1048 8.373964
1048.5 8.445231
1049 8.33402
1049.5 8.155966
1050 8.468529
1050.5 8.184523
1051 8.412363
1051.5 8.274764
1052 8.599114
1052.5 8.295047
1053 8.518271
1053.5 8.234201
1054 8.402075
1054.5 8.417587
1055 8.263838
1055.5 8.46253
1056 8.274065
1056.5 8.555337
1057 8.409145
1057.5 8.585103
1058 8.418186
1058.5 8.357407
1059 8.488317
1059.5 8.275303
1060 8.475614
1060.5 8.334145
1061 8.582087
1061.5 8.272094
1062 8.495993
1062.5 8.398694
1063 8.467557
1063.5 8.302114
1064 8.289183
1064.5 8.526897
1065 8.412863
1065.5 8.591766
1066 8.264379
1066.5 8.535574
1067 8.40791
1067.5 8.557246
1068 8.46609
1068.5 8.522898
1069 8.537916
1069.5 8.492295
1070 8.534952
1070.5 8.42425
1071 8.680664
1071.5 8.437836
1072 8.548312
1072.5 8.419058
1073 8.565111
1073.5 8.606507
1074 8.572939
1074.5 8.594896
1075 8.295449
1075.5 8.672399
1076 8.424611
1076.5 8.602326
1077 8.2805
1077.5 8.532213
1078 8.326576
1078.5 8.475372
1079 8.478511
1079.5 8.593356
1080 8.59561
1080.5 8.408208
1081 8.698844
1081.5 8.491863
1082 8.605053
1082.5 8.527126
1083 8.662748
1083.5 8.578672
1084 8.565799
1084.5 8.781209
1085 8.574675
1085.5 8.840188
1086 8.480767
1086.5 8.776143
1087 8.490492
1087.5 8.659019
1088 8.625498
1088.5 8.537353
1089 8.579763
1089.5 8.395191
1090 8.655416
1090.5 8.59735
1091 8.644836
1091.5 8.423711
1092 8.736771
1092.5 8.575396
1093 8.825202
1093.5 8.607282
1094 8.712823
1094.5 8.699431
1095 8.755885
1095.5 8.79693
1096 8.646106
1096.5 8.799779
1097 8.615915
1097.5 8.73498
1098 8.580514
1098.5 8.611435
1099 8.708175
1099.5 8.698691
1100 8.815752
1100.5 8.535338
1101 8.840466
1101.5 8.531198
1102 8.799386
1102.5 8.577878
1103 8.768677
1103.5 8.699968
1104 8.862975
1104.5 8.783338
1105 8.71089
1105.5 8.855249
1106 8.605764
1106.5 8.920911
1107 8.706255
1107.5 8.852284
1108 8.717467
1108.5 8.797834
1109 8.820939
1109.5 8.636893
1110 8.901049
1110.5 8.686294
1111 9.059669
1111.5 8.661855
1112 8.872169
1112.5 8.624997
1113 8.819246
1113.5 8.768502
1114 8.771852
1114.5 8.793514
1115 8.555951
1115.5 8.886606
1116 8.783036
1116.5 8.913992
1117 8.704188
1117.5 8.799287
1118 8.75232
1118.5 8.804182
1119 8.790717
1119.5 8.721635
1120 8.872575
1120.5 8.751995
1121 8.796538
1121.5 8.758217
1122 9.035667
1122.5 8.892325
1123 8.983578
1123.5 8.9204
1124 8.715294
1124.5 8.915387
1125 8.863676
1125.5 9.023069
1126 8.681714
1126.5 9.059103
1127 8.666391
1127.5 9.010715
1128 8.900014
1128.5 9.032337
1129 8.992223
1129.5 9.074234
1130 9.082174
1130.5 8.861145
1131 9.072424
1131.5 8.732831
1132 8.917636
1132.5 8.716019
1133 8.790869
1133.5 8.78723
1134 8.847582
1134.5 9.144478
1135 8.938913
1135.5 9.258438
1136 8.906019
1136.5 9.159918
1137 8.824287
1137.5 9.0271
1138 8.884075
1138.5 8.940662
1139 8.978426
1139.5 8.900794
1140 9.028572
1140.5 8.821005
1141 9.116408
1141.5 8.883466
1142 8.972532
1142.5 8.697195
1143 8.978794
1143.5 8.860262
1144 8.932807
1144.5 9.076717
1145 8.967034
1145.5 9.144438
1146 9.022173
1146.5 9.13092
1147 9.017729
1147.5 9.121008
1148 8.944645
1148.5 9.019458
1149 9.029041
1149.5 8.900248
1150 9.111697
1150.5 8.957922
1151 9.105123
1151.5 8.816158
1152 9.203683
1152.5 8.961442
1153 9.14175
1153.5 8.969947
1154 9.135701
1154.5 9.056687
1155 8.96249
1155.5 9.174061
1156 9.135608
1156.5 9.327329
1157 8.992348
1157.5 9.216595
1158 9.129447
1158.5 9.14204
1159 9.18644
1159.5 9.132122
1160 9.209172
1160.5 9.048849
1161 9.325417
1161.5 9.03834
1162 9.34671
1162.5 9.088673
1163 9.192397
1163.5 9.043038
1164 9.112532
1164.5 9.231622
1165 9.075265
1165.5 9.209786
1166 8.960913
1166.5 9.289621
1167 9.204611
1167.5 9.315737
1168 9.177985
1168.5 9.293385
1169 9.30713
1169.5 9.171776
1170 9.338485
1170.5 9.083977
1171 9.318724
1171.5 9.160309
1172 9.253257
1172.5 9.097495
1173 9.24312
1173.5 9.295775
1174 9.265196
1174.5 9.295536
1175 9.123769
1175.5 9.358423
1176 9.096204
1176.5 9.37231
1177 9.08061
1177.5 9.372497
1178 9.179706
1178.5 9.421592
1179 9.290989
1179.5 9.284314
1180 9.374691
1180.5 9.174104
1181 9.340277
1181.5 9.226657
1182 9.469694
1182.5 9.332982
1183 9.368656
1183.5 9.205256
1184 9.272102
1184.5 9.450578
1185 9.201563
1185.5 9.42015
1186 9.077932
1186.5 9.363191
1187 9.098751
1187.5 9.355234
1188 9.190379
1188.5 9.277819
1189 9.197999
1189.5 8.989295
1190 9.148872
1190.5 9.477417
1191 9.261497
1191.5 9.408315
1192 9.319617
1192.5 9.254538
1193 9.439158
1193.5 9.428631
1194 9.445032
1194.5 9.212013
1195 9.546957
1195.5 9.244012
1196 9.499692
1196.5 9.249819
1197 9.51015
1197.5 9.307171
1198 9.370477
1198.5 9.349299
1199 9.379171
1199.5 9.477539
1200 9.378901
1200.5 9.514947
1201 9.359182
1201.5 9.481183
1202 9.359872
1202.5 9.500515
1203 9.470123
1203.5 9.384815
1204 9.57287
1204.5 9.361894
1205 9.61047
1205.5 9.269743
1206 9.534854
1206.5 9.315245
1207 9.534495
1207.5 9.434258
1208 9.501557
1208.5 9.485316
1209 9.298568
1209.5 9.526046
1210 9.395893
1210.5 9.610307
1211 9.405889
1211.5 9.68064
1212 9.467613
1212.5 9.576783
1213 9.559334
1213.5 9.556174
1214 9.627191
1214.5 9.503157
1215 9.597927
1215.5 9.500448
1216 9.686296
1216.5 9.569074
1217 9.575292
1217.5 9.514789
1218 9.460027
1218.5 9.574561
1219 9.530919
1219.5 9.631551
1220 9.316711
1220.5 9.652612
1221 9.450652
1221.5 9.711547
1222 9.47476
1222.5 9.661741
1223 9.562808
1223.5 9.629504
1224 9.645779
1224.5 9.511635
1225 9.597125
1225.5 9.473559
1226 9.793477
1226.5 9.548827
1227 9.642173
1227.5 9.692491
1228 9.660625
1228.5 9.754199
1229 9.498492
1229.5 9.827848
1230 9.485539
1230.5 9.718481
1231 9.417906
1231.5 9.736913
1232 9.747377
1232.5 9.788458
1233 9.650723
1233.5 9.518673
1234 9.704325
1234.5 9.547917
1235 9.808754
1235.5 9.625248
1236 9.992521
1236.5 9.713735
1237 9.708698
1237.5 9.53256
1238 9.704103
1238.5 9.842078
1239 9.675668
1239.5 9.852859
1240 9.688557
1240.5 9.776468
1241 9.579251
1241.5 9.795368
1242 9.756802
1242.5 9.743804
1243 9.689706
1243.5 9.487166
1244 9.749478
1244.5 9.725793
1245 9.868879
1245.5 9.627094
1246 9.940071
1246.5 9.697075
1247 9.831068
1247.5 9.806057
1248 9.841882
1248.5 9.895302
1249 9.851494
1249.5 9.983022
1250 9.761547
1250.5 9.860374
1251 9.807757
1251.5 9.943464
1252 9.800573
1252.5 9.821419
1253 9.964548
1253.5 9.822921
1254 9.840835
1254.5 9.643782
1255 9.929632
1255.5 9.655359
1256 10.009818
1256.5 9.755109
1257 10.023433
1257.5 9.849224
1258 9.933454
1258.5 9.975877
1259 9.914028
1259.5 9.981924
1260 9.800801
1260.5 10.039547
1261 9.961439
1261.5 9.969468
1262 9.920434
1262.5 9.964891
1263 10.085608
1263.5 9.904147
1264 9.982174
1264.5 9.744456
1265 10.053582
1265.5 9.824804
1266 10.077748
1266.5 9.814633
1267 10.014572
1267.5 9.961158
1268 9.900168
1268.5 10.007146
1269 9.777882
1269.5 10.157089
1270 9.944804
1270.5 10.118176
1271 9.800713
1271.5 10.011796
1272 9.914818
1272.5 10.016734
1273 10.070604
1273.5 9.920857
1274 10.15562
1274.5 9.939233
1275 10.09549
1275.5 9.902746
1276 10.111625
1276.5 10.045334
1277 10.03072
1277.5 10.006474
1278 9.910724
1278.5 10.106377
1279 9.963415
1279.5 10.088716
1280 9.829766
1280.5 10.13982
1281 9.880345
1281.5 10.181004
1282 10.0375
1282.5 10.210439
1283 10.019743
1283.5 10.11633
1284 10.200412
1284.5 10.033212
1285 10.2547
1285.5 9.99745
1286 10.164823
1286.5 10.093495
1287 10.115901
1287.5 10.131164
1288 10.08684
1288.5 10.257176
1289 9.953339
1289.5 10.195775
1290 9.886987
1290.5 10.226712
1291 10.089081
1291.5 10.164266
1292 10.00313
1292.5 10.123929
1293 10.188485
1293.5 10.080838
1294 10.265421
1294.5 9.949041
1295 10.237578
1295.5 10.120212
1296 10.253916
1296.5 10.114433
1297 10.21072
1297.5 10.207842
1298 10.122953
1298.5 10.295721
1299 10.107192
1299.5 10.344258
1300 10.140914
1300.5 10.240018
1301 10.110469
1301.5 10.198186
1302 10.236247
1302.5 10.118197
1303 10.19788
1303.5 10.043703
1304 10.366957
1304.5 10.154037
1305 10.320275
1305.5 10.036419
1306 10.269358
1306.5 10.146185
1307 10.290392
1307.5 10.248481
1308 10.298077
1308.5 10.319369
1309 10.232069
1309.5 10.350637
1310 10.161522
1310.5 10.344616
1311 10.235626
1311.5 10.265896
1312 10.25312
1312.5 10.187644
1313 10.322053
1313.5 10.256974
1314 10.389916
1314.5 10.146818
1315 10.368396
1315.5 10.048315
1316 10.345171
1316.5 10.255272
1317 10.322931
1317.5 10.23765
1318 10.234508
1318.5 10.429658
1319 10.272277
1319.5 10.485838
1320 10.24717
1320.5 10.504421
1321 10.341877
1321.5 10.37681
1322 10.37204
1322.5 10.363382
1323 10.543513
1323.5 10.284532
1324 10.540927
1324.5 10.122697
1325 10.472196
1325.5 10.279656
1326 10.382494
1326.5 10.289158
1327 10.309263
1327.5 10.480163
1328 10.469716
1328.5 10.525655
1329 10.303814
1329.5 10.593273
1330 10.370801
1330.5 10.438009
1331 10.319043
1331.5 10.540334
1332 10.432936
1332.5 10.429768
1333 10.451491
1333.5 10.415433
1334 10.550744
1334.5 10.296138
1335 10.440523
1335.5 10.374016
1336 10.45826
1336.5 10.417748
1337 10.524405
1337.5 10.433514
1338 10.281298
1338.5 10.627493
1339 10.317937
1339.5 10.541871
1340 10.244395
1340.5 10.573708
1341 10.447469
1341.5 10.607297
1342 10.560683
1342.5 10.543306
1343 10.601792
1343.5 10.361266
1344 10.613412
1344.5 10.449
1345 10.631385
1345.5 10.397319
1346 10.468815
1346.5 10.343826
1347 10.382873
1347.5 10.744295
1348 10.605165
1348.5 10.915335
1349 10.521517
1349.5 10.581475
1350 10.307363
1350.5 10.656052
1351 10.521437
1351.5 10.598364
1352 10.572753
1352.5 10.445164
1353 10.645817
1353.5 10.332195
1354 10.433196
1354.5 10.464911
1355 10.845816
1355.5 10.781792
1356 10.627685
1356.5 10.570001
1357 10.754325
1357.5 10.86439
1358 10.603104
1358.5 10.653944
1359 10.448924
1359.5 10.726826
1360 10.43741
1360.5 10.359553
1361 10.127385
1361.5 10.652886
1362 10.892421
1362.5 11.150855
1363 10.735562
1363.5 10.202625
1364 10.371314
1364.5 10.774335
1365 10.957627
1365.5 10.960658
1366 10.749837
1366.5 10.412236
1367 10.448557
1367.5 10.776754
1368 10.769825
1368.5 11.047662
1369 10.602996
1369.5 10.577784
1370 10.442571
1370.5 10.698981
1371 10.754995
1371.5 10.8508
1372 10.878032
1372.5 10.75808
1373 10.825703
1373.5 10.481428
1374 10.905014
1374.5 10.609891
1375 10.830135
1375.5 10.611833
1376 10.760281
1376.5 10.859942
1377 10.962754
1377.5 10.715247
1378 10.512984
1378.5 11.147255
1379 10.617632
1379.5 10.606354
1380 10.419568
1380.5 11.112009
1381 10.96364
1381.5 10.43301
1382 10.528868
1382.5 10.920243
1383 11.21785
1383.5 10.7325
1384 10.735735
1384.5 10.634568
1385 11.024816
1385.5 10.954697
1386 10.991035
1386.5 10.623261
1387 10.411524
1387.5 10.687082
1388 10.883696
1388.5 11.129542
1389 10.721229
1389.5 11.11886
1390 10.903897
1390.5 10.914413
1391 10.688086
1391.5 10.541603
1392 10.893622
1392.5 11.190122
1393 11.311896
1393.5 10.683574
1394 10.641749
1394.5 10.563419
1395 10.894489
1395.5 10.839096
1396 10.942745
1396.5 11.238392
1397 11.376775
1397.5 11.133806
1398 10.742934
1398.5 10.82732
1399 10.586958
1399.5 10.742906
1400 10.63638
1400.5 11.147346
1401 11.126938
1401.5 11.342302
1402 11.044876
1402.5 10.796329
1403 10.959148
1403.5 10.668178
1404 10.669604
1404.5 10.915265
1405 11.478288
1405.5 11.197092
1406 10.789416
1406.5 10.878856
1407 11.04319
1407.5 11.392175
1408 10.681126
1408.5 10.876144
1409 10.881823
1409.5 11.399174
1410 11.03261
1410.5 11.157084
1411 10.99788
1411.5 11.027489
1412 11.022536
1412.5 10.650252
1413 10.902226
1413.5 10.734703
1414 11.172634
1414.5 11.104581
1415 11.389141
1415.5 11.144286
1416 11.008343
1416.5 11.041358
1417 10.817141
1417.5 10.946762
1418 10.795318
1418.5 11.133119
1419 11.048611
1419.5 11.306192
1420 11.232877
1420.5 11.29709
1421 11.104622
1421.5 11.041687
1422 11.10112
1422.5 10.958828
1423 11.157876
1423.5 10.996855
1424 11.317949
1424.5 10.99791
1425 11.215357
1425.5 11.08761
1426 10.979779
1426.5 10.99503
1427 11.134539
1427.5 11.216921
1428 11.239154
1428.5 11.32514
1429 11.143843
1429.5 11.268479
1430 10.920922
1430.5 11.035333
1431 11.089814
1431.5 11.228433
1432 11.339132
1432.5 11.11513
1433 11.320404
1433.5 10.920217
1434 11.387552
1434.5 11.088038
1435 11.229219
1435.5 11.046242
1436 11.233412
1436.5 11.103339
1437 11.230726
1437.5 11.341789
1438 11.025956
1438.5 11.265879
1439 11.225659
1439.5 11.472911
1440 11.170457
1440.5 11.272718
1441 11.346491
1441.5 11.274254
1442 11.355211
1442.5 11.16653
1443 11.465637
1443.5 11.153835
1444 11.32719
1444.5 11.020159
1445 11.199139
1445.5 11.421526
1446 11.381188
1446.5 11.246783
1447 11.014979
1447.5 11.30307
1448 11.186227
1448.5 11.35961
1449 11.038025
1449.5 11.267406
1450 11.427138
1450.5 11.613056
1451 11.42803
1451.5 11.366227
1452 11.421114
1452.5 11.305884
1453 11.392454
1453.5 11.1449
1454 11.433196
1454.5 11.363493
1455 11.525427
1455.5 11.283984
1456 11.300515
1456.5 11.457888
1457 11.385974
1457.5 11.47045
1458 11.1553
1458.5 11.457548
1459 11.146146
1459.5 11.551056
1460 11.379696
1460.5 11.569689
1461 11.473664
1461.5 11.572155
1462 11.37602
1462.5 11.396239
1463 11.614969
1463.5 11.29387
1464 11.484051
1464.5 11.32983
1465 11.522577
1465.5 11.447493
1466 11.462545
1466.5 11.582731
1467 11.411218
1467.5 11.495203
1468 11.304881
1468.5 11.485127
1469 11.206124
1469.5 11.504287
1470 11.265189
1470.5 11.522783
1471 11.649097
1471.5 11.513932
1472 11.58731
1472.5 11.45177
1473 11.765701
1473.5 11.570745
1474 11.733457
1474.5 11.490832
1475 11.691495
1475.5 11.622982
1476 11.532566
1476.5 11.592457
1477 11.530007
1477.5 11.738315
1478 11.576494
1478.5 11.63023
1479 11.464393
1479.5 11.628196
1480 11.62755
1480.5 11.646631
1481 11.535763
1481.5 11.464717
1482 11.681338
1482.5 11.543623
1483 11.647567
1483.5 11.329665
1484 11.681165
1484.5 11.521778
1485 11.715256
1485.5 11.541772
1486 11.661828
1486.5 11.572874
1487 11.678517
1487.5 11.681027
1488 11.554161
1488.5 11.771513
1489 11.59007
1489.5 11.777683
1490 11.586913
1490.5 11.705995
1491 11.757352
1491.5 11.792456
1492 11.814164
1492.5 11.613869
1493 11.837876
1493.5 11.532588
1494 11.94491
1494.5 11.49964
1495 11.799562
1495.5 11.544087
1496 11.68902
1496.5 11.679022
1497 11.662205
1497.5 11.783358
1498 11.553675
1498.5 11.803752
1499 11.703127
1499.5 11.857974
1500 11.684205
1500.5 11.832339
1501 11.808508
1501.5 11.776715
1502 11.8972
1502.5 11.580337
1503 11.928978
1503.5 11.67554
1504 11.871039
1504.5 11.673111
1505 12.050284
1505.5 11.885053
1506 11.915711
1506.5 11.911013
1507 11.660485
1507.5 11.781523
1508 11.841613
1508.5 11.877322
1509 11.693511
1509.5 11.877579
1510 11.731096
1510.5 11.863498
1511 11.851844
1511.5 11.834417
1512 11.888418
1512.5 11.85139
1513 11.950178
1513.5 11.778257
1514 11.997043
1514.5 11.774169
1515 11.896772
1515.5 11.777303
1516 11.876521
1516.5 11.900847
1517 11.926281
1517.5 12.047771
1518 11.904254
1518.5 12.101395
1519 11.754685
1519.5 12.084862
1520 11.993761
1520.5 12.162422
1521 11.931705
1521.5 11.958948
1522 11.975612
1522.5 11.928077
1523 12.063772
1523.5 11.781506
1524 12.02436
1524.5 11.904693
1525 12.064462
1525.5 11.926339
1526 12.048075
1526.5 12.01527
1527 11.922938
1527.5 12.103554
1528 11.880081
1528.5 12.113488
1529 11.956419
1529.5 12.184926
1530 11.938076
1530.5 12.182626
1531 12.116286
1531.5 12.027772
1532 12.004445
1532.5 11.825217
1533 12.139995
1533.5 12.013168
1534 12.069464
1534.5 11.959473
1535 12.099558
1535.5 12.007201
1536 12.078477
1536.5 12.08865
1537 12.05308
1537.5 12.246899
1538 12.088723
1538.5 12.290397
1539 12.08195
1539.5 12.266874
1540 12.155305
1540.5 12.353197
1541 12.172368
1541.5 12.159503
1542 12.194681
1542.5 12.168954
1543 12.180924
1543.5 11.856312
1544 12.264041
1544.5 11.939844
1545 12.209574
1545.5 11.968057
1546 12.152036
1546.5 12.128527
1547 12.128964
1547.5 12.261772
1548 12.191376
1548.5 12.251443
1549 12.192614
1549.5 12.348654
1550 12.197293
1550.5 12.300391
1551 12.331393
1551.5 12.34891
1552 12.352125
1552.5 12.233739
1553 12.418847
1553.5 12.117079
1554 12.319018
1554.5 11.983785
1555 12.288946
1555.5 12.152921
1556 12.262742
1556.5 12.257066
1557 12.23508
1557.5 12.262369
1558 12.154952
1558.5 12.372037
1559 12.285969
1559.5 12.398034
1560 12.215899
1560.5 12.483985
1561 12.286104
1561.5 12.355068
1562 12.388571
1562.5 12.351519
1563 12.61497
1563.5 12.406879
1564 12.625732
1564.5 12.324462
1565 12.391738
1565.5 12.279347
1566 12.397596
1566.5 12.292892
1567 12.227866
1567.5 12.404054
1568 12.381645
1568.5 12.378042
1569 12.176098
1569.5 12.483141
1570 12.295014
1570.5 12.4338
1571 12.426741
1571.5 12.534027
1572 12.557167
1572.5 12.495053
1573 12.515697
1573.5 12.341315
1574 12.481584
1574.5 12.350935
1575 12.480602
1575.5 12.342349
1576 12.405974
1576.5 12.422287
1577 12.490196
1577.5 12.49969
1578 12.24531
1578.5 12.546024
1579 12.318133
1579.5 12.598358
1580 12.268905
1580.5 12.508944
1581 12.410879
1581.5 12.611185
1582 12.602384
1582.5 12.552093
1583 12.697805
1583.5 12.480664
1584 12.640087
1584.5 12.460724
1585 12.666397
1585.5 12.523697
1586 12.616752
1586.5 12.598626
1587 12.450343
1587.5 12.712234
1588 12.446403
1588.5 12.671661
1589 12.42509
1589.5 12.696041
1590 12.4809
1590.5 12.673172
1591 12.534334
1591.5 12.613907
1592 12.622668
1592.5 12.548199
1593 12.781383
1593.5 12.610818
1594 12.810849
1594.5 12.553044
1595 12.745224
1595.5 12.531325
1596 12.682705
1596.5 12.600099
1597 12.616883
1597.5 12.678809
1598 12.656426
1598.5 12.784193
1599 12.588908
1599.5 12.752734
1600 12.624395
1600.5 12.721936
1601 12.68909
1601.5 12.679888
1602 12.856802
1602.5 12.85115
1603 12.847275
1603.5 12.536664
1604 12.775634
1604.5 12.555562
1605 12.835586
1605.5 12.602791
1606 12.709096
1606.5 12.706771
1607 12.79413
1607.5 12.713021
1608 12.700911
1608.5 12.853314
1609 12.721893
1609.5 12.886807
1610 12.694097
1610.5 12.892242
1611 12.79135
1611.5 12.930666
1612 12.88677
1612.5 12.814339
1613 13.005118
1613.5 12.81528
1614 13.137485
1614.5 12.804686
1615 12.920986
1615.5 12.670135
1616 12.90765
1616.5 12.830037
1617 12.793945
1617.5 12.804404
1618 12.634996
1618.5 12.944508
1619 12.831451
1619.5 12.914135
1620 12.778293
1620.5 12.984975
1621 12.869669
1621.5 12.846394
1622 12.955779
1622.5 12.881811
1623 12.995909
1623.5 12.821743
1624 12.962303
1624.5 12.786344
1625 13.03772
1625.5 12.850925
1626 13.047476
1626.5 12.961942
1627 12.958977
1627.5 13.165915
1628 13.09192
1628.5 13.116191
1629 12.700742
1629.5 13.076323
1630 12.81974
1630.5 13.08001
1631 12.863472
1631.5 12.943736
1632 12.973897
1632.5 13.021849
1633 13.049145
1633.5 12.940852
1634 13.145834
1634.5 12.939738
1635 13.128324
1635.5 12.972999
1636 13.02947
1636.5 13.143232
1637 13.214406
1637.5 13.174996
1638 12.95213
1638.5 13.287175
1639 13.101219
1639.5 13.215768
1640 12.799175
1640.5 13.10553
1641 12.922865
1641.5 13.163653
1642 13.057126
1642.5 13.053279
1643 13.098419
1643.5 12.945549
1644 13.231969
1644.5 13.002202
1645 13.178815
1645.5 13.006848
1646 13.277651
1646.5 13.128187
1647 13.127172
1647.5 13.243601
1648 13.087799
1648.5 13.394551
1649 13.145244
1649.5 13.385627
1650 13.141185
1650.5 13.402712
1651 13.078444
1651.5 13.155064
1652 13.138734
1652.5 13.050659
1653 13.322063
1653.5 13.085961
1654 13.269275
1654.5 12.99019
1655 13.314189
1655.5 13.170978
1656 13.267717
1656.5 13.281418
1657 13.27313
1657.5 13.341568
1658 13.359517
1658.5 13.370137
1659 13.29408
1659.5 13.42622
1660 13.121603
1660.5 13.331977
1661 13.155764
1661.5 13.199256
1662 13.3367
1662.5 13.3258
1663 13.344996
1663.5 13.128136
1664 13.457739
1664.5 13.087511
1665 13.376497
1665.5 13.137339
1666 13.382377
1666.5 13.178018
1667 13.31901
1667.5 13.258803
1668 13.203578
1668.5 13.256063
1669 13.107418
1669.5 13.275684
1670 13.054754
1670.5 13.259049
1671 13.314414
1671.5 13.226092
1672 13.476139
1672.5 13.38242
1673 13.470735
1673.5 13.30051
1674 13.661212
1674.5 13.441402
1675 13.545266
1675.5 13.504754
1676 13.368505
1676.5 13.532199
1677 13.322076
1677.5 13.504776
1678 13.250023
1678.5 13.519141
1679 13.36806
1679.5 13.453391
1680 13.359229
1680.5 13.425495
1681 13.64575
1681.5 13.555929
1682 13.676926
1682.5 13.271251
1683 13.579354
1683.5 13.383889
1684 13.472898
1684.5 13.365927
1685 13.554873
1685.5 13.457294
1686 13.471103
1686.5 13.577189
1687 13.490324
1687.5 13.668381
1688 13.464394
1688.5 13.530958
1689 13.374022
1689.5 13.502768
1690 13.489383
1690.5 13.577534
1691 13.432731
1691.5 13.322909
1692 13.624042
1692.5 13.46896
1693 13.731275
1693.5 13.342541
1694 13.736908
1694.5 13.562235
1695 13.648881
1695.5 13.568529
1696 13.565892
1696.5 13.582544
1697 13.409635
1697.5 13.681692
1698 13.514766
1698.5 13.821717
1699 13.551264
1699.5 13.785924
1700 13.666031
1700.5 13.632828
1701 13.659821
1701.5 13.552675
1702 13.726017
1702.5 13.501063
1703 13.706182
1703.5 13.419007
1704 13.761403
1704.5 13.575383
1705 13.620819
1705.5 13.594487
1706 13.532488
1706.5 13.741305
1707 13.610461
1707.5 13.827261
1708 13.536337
1708.5 13.847576
1709 13.776933
1709.5 13.831374
1710 13.741207
1710.5 13.847485
1711 13.902603
1711.5 13.688563
1712 13.87095
1712.5 13.654514
1713 13.861994
1713.5 13.656531
1714 13.795304
1714.5 13.697015
1715 13.742208
1715.5 13.769548
1716 13.77821
1716.5 13.826534
1717 13.486533
1717.5 13.886862
1718 13.61865
1718.5 13.906117
1719 13.747703
1719.5 13.944003
1720 13.757515
1720.5 13.949491
1721 13.87547
1721.5 13.896358
1722 14.02813
1722.5 13.881528
1723 14.096905
1723.5 13.890143
1724 13.916324
1724.5 13.890861
1725 13.884905
1725.5 13.861737
1726 13.808833
1726.5 14.132988
1727 13.787942
1727.5 13.952328
1728 13.690951
1728.5 14.001057
1729 13.790914
1729.5 13.973635
1730 13.919789
1730.5 13.946784
1731 13.908049
1731.5 13.874504
1732 14.051312
1732.5 13.970505
1733 14.073038
1733.5 13.862692
1734 14.16232
1734.5 13.973901
1735 13.929419
1735.5 14.044642
1736 13.957204
1736.5 14.159119
1737 13.910142
1737.5 14.013176
1738 13.89368
1738.5 14.119835
1739 13.946262
1739.5 14.079542
1740 13.920622
1740.5 13.942049
1741 14.088321
1741.5 13.948935
1742 14.041275
1742.5 13.807538
1743 14.218906
1743.5 13.934965
1744 14.147057
1744.5 14.005344
1745 14.235379
1745.5 14.123921
1746 14.140081
1746.5 14.135216
1747 14.049098
1747.5 14.35841
1748 14.25159
1748.5 14.380059
1749 14.155757
1749.5 14.288895
1750 14.259982
1750.5 14.146546
1751 14.190696
1751.5 14.016362
1752 14.331189
1752.5 14.049256
1753 14.303862
1753.5 13.983996
1754 14.201412
1754.5 14.081562
1755 14.208134
1755.5 14.108533
1756 14.165919
1756.5 14.254567
1757 14.053798
1757.5 14.310308
1758 14.097711
1758.5 14.342874
1759 14.148892
1759.5 14.272471
1760 14.183372
1760.5 14.224067
1761 14.405717
1761.5 14.128108
1762 14.388734
1762.5 14.198224
1763 14.372292
1763.5 14.104958
1764 14.352667
1764.5 14.294575
1765 14.428516
1765.5 14.482488
1766 14.388394
1766.5 14.484102
1767 14.323097
1767.5 14.396696
1768 14.245413
1768.5 14.461288
1769 14.387205
1769.5 14.448556
1770 14.370643
1770.5 14.341927
1771 14.425938
1771.5 14.341794
1772 14.417018
1772.5 14.235012
1773 14.482982
1773.5 14.288865
1774 14.43392
1774.5 14.284614
1775 14.318918
1775.5 14.402476
1776 14.334676
1776.5 14.360927
1777 14.149594
1777.5 14.527121
1778 14.291403
1778.5 14.572574
1779 14.36993
1779.5 14.531219
1780 14.540446
1780.5 14.548154
1781 14.555568
1781.5 14.51008
1782 14.744838
1782.5 14.428762
1783 14.621057
1783.5 14.454809
1784 14.6915
1784.5 14.59863
1785 14.630124
1785.5 14.77849
1786 14.496776
1786.5 14.685486
1787 14.453234
1787.5 14.755857
1788 14.406741
1788.5 14.659584
1789 14.477606
1789.5 14.646468
1790 14.642252
1790.5 14.575817
1791 14.616197
1791.5 14.443766
1792 14.870517
1792.5 14.63846
1793 14.700674
1793.5 14.577414
1794 14.72771
1794.5 14.789125
1795 14.762163
1795.5 14.719705
1796 14.789136
1796.5 14.89466
1797 14.720154
1797.5 14.818883
1798 14.513683
1798.5 14.676826
1799 14.536268
1799.5 14.623627
1800 14.598577
1800.5 14.594759
1801 14.859423
1801.5 14.874831
1802 15.00289
1802.5 14.61805
1803 14.9682
1803.5 14.661579
1804 14.781232
1804.5 14.555903
1805 14.771245
1805.5 14.791025
1806 14.884563
1806.5 15.028974
1807 14.826548
1807.5 15.095158
1808 14.813459
1808.5 14.925416
1809 14.633389
1809.5 14.707646
1810 14.838313
1810.5 14.844547
1811 14.886644
1811.5 14.711305
1812 15.038197
1812.5 14.836609
1813 15.15701
1813.5 14.830628
1814 14.741699
1814.5 14.583249
1815 14.997293
1815.5 15.120159
1816 15.142463
1816.5 15.080112
1817 14.778858
1817.5 15.007895
1818 14.933099
1818.5 15.053047
1819 14.587669
1819.5 14.696404
1820 14.901842
1820.5 14.891107
1821 15.091303
1821.5 14.961334
1822 15.319823
1822.5 15.144047
1823 15.229733
1823.5 14.784075
1824 15.038721
1824.5 14.804819
1825 14.818564
1825.5 14.87543
1826 14.940263
1826.5 15.360513
1827 15.069249
1827.5 15.039507
1828 14.743005
1828.5 15.194897
1829 14.980967
1829.5 14.96044
1830 14.938501
1830.5 15.011503
1831 15.299536
1831.5 15.311697
1832 15.443452
1832.5 15.212059
1833 15.213884
1833.5 14.937174
1834 15.080915
1834.5 14.739667
1835 14.917274
1835.5 14.945579
1836 15.17092
1836.5 15.266518
1837 15.101813
1837.5 15.568961
1838 14.971724
1838.5 15.182641
1839 14.973073
1839.5 15.154882
1840 14.806646
1840.5 14.950232
1841 15.198065
1841.5 15.296933
1842 15.386638
1842.5 15.415326
1843 15.699573
1843.5 15.373394
1844 15.361302
1844.5 15.160725
1845 15.147135
1845.5 15.038283
1846 14.786604
1846.5 15.175387
1847 14.933413
1847.5 15.396617
1848 15.286402
1848.5 15.671332
1849 15.289614
1849.5 15.502554
1850 15.493158
1850.5 15.366447
1851 15.233861
1851.5 14.944521
1852 15.18041
1852.5 15.056027
1853 15.393908
1853.5 15.426239
1854 15.732999
1854.5 15.268806
1855 15.264301
1855.5 15.140399
1856 15.337889
1856.5 15.582339
1857 15.489259
1857.5 15.562481
1858 15.095811
1858.5 15.194625
1859 15.102287
1859.5 15.469034
1860 15.468256
1860.5 15.623856
1861 15.714611
1861.5 15.524085
1862 15.453202
1862.5 15.101023
1863 15.414165
1863.5 15.304953
1864 15.806143
1864.5 15.669666
1865 15.700065
1865.5 15.427543
1866 15.282519
1866.5 15.371361
1867 15.11725
1867.5 15.601878
1868 15.565774
1868.5 15.731955
1869 15.361565
1869.5 15.364057
1870 15.293199
1870.5 15.546581
1871 15.612248
1871.5 15.277669
1872 15.467781
1872.5 15.3107
1873 15.776636
1873.5 15.550691
1874 15.863928
1874.5 15.390371
1875 15.373115
1875.5 15.328214
1876 15.375325
1876.5 15.627055
1877 15.583326
1877.5 15.859242
1878 15.827963
1878.5 15.701419
1879 15.341207
1879.5 15.547597
1880 15.573618
1880.5 15.742606
1881 15.763085
1881.5 15.655875
1882 15.602182
1882.5 15.376715
1883 15.54137
1883.5 15.522754
1884 15.737766
1884.5 15.697764
1885 15.782528
1885.5 15.674783
1886 15.639378
1886.5 15.915528
1887 15.873836
1887.5 15.774056
1888 15.309781
1888.5 15.625818
1889 15.26781
1889.5 15.721771
1890 15.691458
1890.5 15.844332
1891 15.738651
1891.5 15.723315
1892 15.877333
1892.5 15.78705
1893 15.939413
1893.5 15.78614
1894 15.991972
1894.5 16.01368
1895 15.984538
1895.5 15.73121
1896 15.752491
1896.5 15.857537
1897 15.590438
1897.5 15.760642
1898 15.351298
1898.5 15.690832
1899 15.612537
1899.5 15.983969
1900 15.943582
1900.5 16.045038
1901 15.91567
1901.5 15.758899
1902 15.80552
1902.5 15.611541
1903 15.864997
1903.5 15.706694
1904 15.744685
1904.5 15.480201
1905 15.803771
1905.5 15.888847
1906 15.874043
1906.5 16.168511
1907 16.025926
1907.5 16.271771
1908 15.951185
1908.5 16.015029
1909 15.854953
1909.5 15.831071
1910 15.949707
1910.5 15.895976
1911 15.772408
1911.5 15.567887
1912 15.798643
1912.5 15.656242
1913 16.052665
1913.5 15.734656
1914 16.090848
1914.5 15.935265
1915 16.110994
1915.5 16.08413
1916 16.150758
1916.5 16.236188
1917 16.180931
1917.5 16.041102
1918 15.81413
1918.5 15.868561
1919 15.750869
1919.5 16.007668
1920 15.938121
1920.5 16.211078
1921 16.26755
1921.5 16.16516
1922 16.061737
1922.5 15.770638
1923 16.009995
1923.5 15.675344
1924 16.155304
1924.5 15.829182
1925 16.055134
1925.5 15.905459
1926 15.873611
1926.5 16.076408
1927 16.055655
1927.5 16.11625
1928 15.999644
1928.5 16.313726
1929 16.153005
1929.5 16.170041
1930 16.075467
1930.5 16.093792
1931 16.218768
1931.5 16.039419
1932 16.271098
1932.5 15.98039
1933 16.294643
1933.5 16.041251
1934 16.213515
1934.5 16.085908
1935 16.260633
1935.5 16.208185
1936 16.204447
1936.5 16.201624
1937 15.898234
1937.5 16.284859
1938 16.091138
1938.5 16.247895
1939 16.097102
1939.5 16.391525
1940 16.219804
1940.5 16.270775
1941 16.262811
1941.5 16.185583
1942 16.458131
1942.5 16.18479
1943 16.351932
1943.5 16.156942
1944 16.349742
1944.5 16.260996
1945 16.354132
1945.5 16.200674
1946 16.1733
1946.5 16.32304
1947 16.168846
1947.5 16.353866
1948 16.197094
1948.5 16.47319
1949 16.159213
1949.5 16.404933
1950 16.250668
1950.5 16.356823
1951 16.405353
1951.5 16.25981
1952 16.393517
1952.5 16.247173
1953 16.556351
1953.5 16.230509
1954 16.487822
1954.5 16.309103
1955 16.383807
1955.5 16.391601
1956 16.39334
1956.5 16.57846
1957 16.214636
1957.5 16.56079
1958 16.248718
1958.5 16.554999
1959 16.372769
1959.5 16.418244
1960 16.352755
1960.5 16.408573
1961 16.451272
1961.5 16.408335
1962 16.547346
1962.5 16.259144
1963 16.547881
1963.5 16.425033
1964 16.55629
1964.5 16.399707
1965 16.621904
1965.5 16.6144
1966 16.514042
1966.5 16.655871
1967 16.419917
1967.5 16.667233
1968 16.374288
1968.5 16.615821
1969 16.425902
1969.5 16.511667
1970 16.494231
1970.5 16.536559
1971 16.635355
1971.5 16.389248
1972 16.625449
1972.5 16.468576
1973 16.677991
1973.5 16.457494
1974 16.659643
1974.5 16.532816
1975 16.56384
1975.5 16.66294
1976 16.602692
1976.5 16.675478
1977 16.576815
1977.5 16.713679
1978 16.562985
1978.5 16.748975
1979 16.598366
1979.5 16.685873
1980 16.639802
1980.5 16.591331
1981 16.840091
1981.5 16.556101
1982 16.748267
1982.5 16.437845
1983 16.814946
1983.5 16.500734
1984 16.784789
1984.5 16.691774
1985 16.68939
1985.5 16.758423
1986 16.586356
1986.5 16.815296
1987 16.659664
1987.5 16.845796
1988 16.727336
1988.5 16.971469
1989 16.774799
1989.5 16.763051
1990 16.843195
1990.5 16.702762
1991 16.9524
1991.5 16.657618
1992 16.904584
1992.5 16.621181
1993 16.952427
1993.5 16.69497
1994 16.805638
1994.5 16.751058
1995 16.76318
1995.5 16.880092
1996 16.768646
1996.5 16.916333
1997 16.665876
1997.5 17.007981
1998 16.7851
1998.5 16.986375
1999 16.782917
1999.5 16.928102
2000 16.875581
2000.5 16.892754
2001 16.981748
2001.5 16.83923
2002 17.047341
2002.5 16.886809
2003 17.052266
2003.5 16.833925
2004 16.907988
2004.5 17.006595
2005 16.893718
2005.5 16.964924
2006 16.742225
2006.5 17.139898
2007 16.874443
2007.5 17.115657
2008 16.913734
2008.5 17.218448
2009 17.101239
2009.5 17.216969
2010 16.952638
2010.5 16.902184
2011 17.000104
2011.5 16.841051
2012 17.088415
2012.5 16.910098
2013 17.018035
2013.5 16.969839
2014 17.101723
2014.5 17.083822
2015 16.95742
2015.5 17.135924
2016 16.934548
2016.5 17.145212
2017 16.903672
2017.5 17.236446
2018 16.952139
2018.5 17.285496
2019 17.108621
2019.5 17.132969
2020 17.024533
2020.5 17.027473
2021 17.140849
2021.5 16.946512
2022 17.210555
2022.5 17.08792
2023 17.174779
2023.5 17.093123
2024 17.189047
2024.5 17.199101
2025 17.066306
2025.5 17.236742
2026 17.020021
2026.5 17.152008
2027 16.959487
2027.5 17.246701
2028 17.027099
2028.5 17.182159
2029 17.181848
2029.5 17.028438
2030 17.302282
2030.5 17.217489
2031 17.401549
2031.5 17.126235
2032 17.356141
2032.5 17.061666
2033 17.185944
2033.5 17.134939
2034 17.141117
2034.5 17.224604
2035 17.214252
2035.5 17.29766
2036 17.148584
2036.5 17.396231
2037 17.269392
2037.5 17.4969
2038 17.258111
2038.5 17.337114
2039 17.254236
2039.5 17.176791
2040 17.335424
2040.5 17.091443
2041 17.434588
2041.5 17.129998
2042 17.476903
2042.5 17.212993
2043 17.496862
2043.5 17.182241
2044 17.339633
2044.5 17.272177
2045 17.325298
2045.5 17.419834
2046 17.214362
2046.5 17.564651
2047 17.388429
2047.5 17.590533
2048 17.326829
2048.5 17.362182
2049 17.427225
2049.5 17.302161
2050 17.460996
2050.5 17.254199
2051 17.535549
2051.5 17.357734
2052 17.607784
2052.5 17.346235
2053 17.404211
2053.5 17.378083
2054 17.381324
2054.5 17.404565
2055 17.180489
2055.5 17.491406
2056 17.341191
2056.5 17.657202
2057 17.518146
2057.5 17.750429
2058 17.39025
2058.5 17.378163
2059 17.509493
2059.5 17.426218
2060 17.629534
2060.5 17.511487
2061 17.671053
2061.5 17.344303
2062 17.601639
2062.5 17.472462
2063 17.632097
2063.5 17.493349
2064 17.518432
2064.5 17.663276
2065 17.457542
2065.5 17.646925
2066 17.267926
2066.5 17.699736
2067 17.504731
2067.5 17.671189
2068 17.463478
2068.5 17.555998
2069 17.586677
2069.5 17.54685
2070 17.677887
2070.5 17.524213
2071 17.790951
2071.5 17.467208
2072 17.684613
2072.5 17.637813
2073 17.644319
2073.5 17.852119
2074 17.733213
2074.5 17.88052
2075 17.459337
2075.5 17.706552
2076 17.364429
2076.5 17.699979
2077 17.553508
2077.5 17.771344
2078 17.657913
2078.5 17.766628
2079 17.732085
2079.5 17.617567
2080 17.788279
2080.5 17.578252
2081 17.821413
2081.5 17.72788
2082 17.877845
2082.5 17.814875
2083 17.896579
2083.5 17.898282
2084 17.601049
2084.5 17.902446
2085 17.57803
2085.5 17.913157
2086 17.682111
2086.5 17.947112
2087 17.66983
2087.5 17.8748
2088 17.782846
2088.5 17.796429
2089 17.769642
2089.5 17.552574
2090 17.977153
2090.5 17.898171
2091 17.949702
2091.5 17.677435
2092 17.861401
2092.5 17.820095
2093 17.895816
2093.5 17.925757
2094 17.792732
2094.5 18.095985
2095 17.957388
2095.5 18.084925
2096 17.725913
2096.5 17.915216
2097 17.886896
2097.5 17.907119
2098 17.868607
2098.5 17.798786
2099 18.052669
2099.5 17.965746
2100 18.172987
2100.5 17.715369
2101 18.038584
2101.5 17.846631
2102 18.013516
2102.5 17.876041
2103 17.968068
2103.5 17.993781
2104 18.047196
2104.5 18.015519
2105 17.907131
2105.5 18.15479
2106 17.927852
2106.5 18.094391
2107 17.923757
2107.5 17.976937
2108 18.10777
2108.5 18.020642
2109 18.174255
2109.5 17.945467
2110 18.1445
2110.5 17.74015
2111 18.06955
2111.5 17.88945
2112 18.099438
2112.5 17.984343
2113 18.108855
2113.5 18.247183
2114 18.096876
2114.5 18.249959
2115 18.055373
2115.5 18.291497
2116 18.005447
2116.5 18.15203
2117 18.061265
2117.5 18.177207
2118 18.296345
2118.5 18.123434
2119 18.320949
2119.5 18.111841
2120 18.377732
2120.5 18.03457
2121 18.262064
2121.5 17.993589
2122 18.15545
2122.5 18.238331
2123 18.197334
2123.5 18.278743
2124 18.040256
2124.5 18.326834
2125 18.125072
2125.5 18.278623
2126 18.084551
2126.5 18.341386
2127 18.246682
2127.5 18.378256
2128 18.342669
2128.5 18.30373
2129 18.343899
2129.5 18.25688
2130 18.3182
2130.5 18.142115
2131 18.339291
2131.5 18.237022
2132 18.323199
2132.5 18.255222
2133 18.167286
2133.5 18.364705
2134 18.328266
2134.5 18.462399
2135 18.034007
2135.5 18.374938
2136 18.077458
2136.5 18.443142
2137 18.287143
2137.5 18.345453
2138 18.335515
2138.5 18.322392
2139 18.486238
2139.5 18.435249
2140 18.621415
2140.5 18.228498
2141 18.409601
2141.5 18.385316
2142 18.347961
2142.5 18.44705
2143 18.392773
2143.5 18.531306
2144 18.263401
2144.5 18.561427
2145 18.38854
2145.5 18.627071
2146 18.318348
2146.5 18.490611
2147 18.394271
2147.5 18.387447
2148 18.457907
2148.5 18.415637
2149 18.575197
2149.5 18.318214
2150 18.616557
2150.5 18.556081
2151 18.629113
2151.5 18.439776
2152 18.504192
2152.5 18.578827
2153 18.428023
2153.5 18.593286
2154 18.45755
2154.5 18.765363
2155 18.473637
2155.5 18.646298
2156 18.482149
2156.5 18.71663
2157 18.714392
2157.5 18.54464
2158 18.49864
2158.5 18.360585
2159 18.640569
2159.5 18.480811
2160 18.683666
2160.5 18.483472
2161 18.753761
2161.5 18.636006
2162 18.674621
2162.5 18.753545
2163 18.763883
2163.5 18.836512
2164 18.612181
2164.5 18.701889
2165 18.485554
2165.5 18.714394
2166 18.574721
2166.5 18.74339
2167 18.662013
2167.5 18.598162
2168 18.783921
2168.5 18.647823
2169 18.857473
2169.5 18.522878
2170 18.982242
2170.5 18.634647
2171 18.956506
2171.5 18.724741
2172 18.732288
2172.5 18.71354
2173 18.704504
2173.5 18.810041
2174 18.710884
2174.5 18.894383
2175 18.70344
2175.5 19.00223
2176 18.86481
2176.5 18.893339
2177 18.970266
2177.5 18.823867
2178 18.937631
2178.5 18.724597
2179 19.034761
2179.5 18.605159
2180 19.04677
2180.5 18.675092
2181 18.933457
2181.5 18.856996
2182 18.854669
2182.5 19.050109
2183 18.945669
2183.5 19.08558
2184 18.773912
2184.5 19.022052
2185 18.889378
2185.5 19.014645
2186 18.836744
2186.5 18.952772
2187 18.995634
2187.5 18.940508
2188 19.112895
2188.5 18.937208
2189 19.18641
2189.5 19.041742
2190 19.247434
2190.5 19.003032
2191 19.101736
2191.5 19.026761
2192 19.041666
2192.5 19.027622
2193 18.878649
2193.5 19.180985
2194 18.947743
2194.5 19.205789
2195 18.979551
2195.5 19.222154
2196 19.089758
2196.5 19.270411
2197 19.111271
2197.5 19.105491
2198 19.262879
2198.5 18.975113
2199 19.186881
2199.5 19.007909
2200 19.222507
2200.5 19.063058
2201 19.219954
2201.5 19.151381
2202 19.172376
2202.5 19.39442
2203 19.227411
2203.5 19.414863
2204 18.999675
2204.5 19.259995
2205 18.967664
2205.5 19.319509
2206 19.189289
2206.5 19.270787
2207 19.218194
2207.5 19.110197
2208 19.36913
2208.5 19.220707
2209 19.432515
2209.5 19.224867
2210 19.497937
2210.5 19.491644
2211 19.264384
2211.5 19.370273
2212 19.245362
2212.5 19.475722
2213 19.152686
2213.5 19.418718
2214 19.178469
2214.5 19.468258
2215 19.38823
2215.5 19.502938
2216 19.328302
2216.5 19.286011
2217 19.52735
2217.5 19.423655
2218 19.470049
2218.5 19.136077
2219 19.50409
2219.5 19.274247
2220 19.434825
2220.5 19.346255
2221 19.429997
2221.5 19.438498
2222 19.486415
2222.5 19.625887
2223 19.418864
2223.5 19.662055
2224 19.487183
2224.5 19.570413
2225 19.383211
2225.5 19.389209
2226 19.42106
2226.5 19.458945
2227 19.498119
2227.5 19.258682
2228 19.575948
2228.5 19.371706
2229 19.63803
2229.5 19.45224
2230 19.733202
2230.5 19.520426
2231 19.576626
2231.5 19.467846
2232 19.447117
2232.5 19.580983
2233 19.457547
2233.5 19.594732
2234 19.379242
2234.5 19.653495
2235 19.598964
2235.5 19.688517
2236 19.653377
2236.5 19.583519
2237 19.776787
2237.5 19.690129
2238 19.834048
2238.5 19.406018
2239 19.695807
2239.5 19.412467
2240 19.653475
2240.5 19.56238
2241 19.571897
2241.5 19.618538
2242 19.42858
2242.5 19.752921
2243 19.649842
2243.5 19.920641
2244 19.646612
2244.5 19.906016
2245 19.754745
2245.5 19.673906
2246 19.573885
2246.5 19.638768
2247 19.872332
2247.5 19.571429
2248 19.75926
2248.5 19.593844
2249 19.795796
2249.5 19.72947
2250 19.844855
2250.5 19.786644
2251 19.800466
2251.5 19.784746
2252 19.653742
2252.5 19.739568
2253 19.484432
2253.5 19.832891
2254 19.59431
2254.5 19.731435
2255 19.693546
2255.5 19.824462
2256 19.763722
2256.5 19.869539
2257 19.931255
2257.5 19.774024
2258 19.876246
2258.5 19.697629
2259 19.829498
2259.5 19.630462
2260 19.811805
2260.5 19.825757
2261 19.84362
2261.5 19.820061
2262 19.713092
2262.5 20.005363
2263 19.625054
2263.5 19.859578
2264 19.558892
2264.5 19.835797
2265 19.534841
2265.5 19.804604
2266 19.735166
2266.5 19.819656
2267 19.817822
2267.5 19.763723
2268 20.060045
2268.5 19.846928
2269 20.156267
2269.5 19.979647
2270 19.932663
2270.5 19.797952
2271 19.757816
2271.5 19.914106
2272 19.712065
2272.5 19.894335
2273 19.731703
2273.5 19.939543
2274 19.689584
2274.5 19.930971
2275 19.813304
2275.5 19.933653
2276 19.994868
2276.5 19.91162
2277 20.075016
2277.5 19.802012
2278 19.924685
2278.5 19.7451
2279 20.008619
2279.5 19.810201
2280 19.95891
2280.5 19.92539
2281 19.926141
2281.5 20.017551
2282 19.874243
2282.5 20.141676
2283 19.813757
2283.5 20.113373
2284 20.007776
2284.5 20.091201
2285 19.862907
2285.5 19.904089
2286 20.026186
2286.5 19.993608
2287 20.028754
2287.5 19.693364
2288 20.01583
2288.5 19.844358
2289 20.133282
2289.5 19.956663
2290 20.161548
2290.5 20.120169
2291 20.133947
2291.5 20.157002
2292 20.003608
2292.5 20.163751
2293 19.908917
2293.5 20.159675
2294 19.963965
2294.5 20.057337
2295 20.139454
2295.5 20.187144
2296 20.213225
2296.5 19.959527
2297 20.182422
2297.5 19.939548
2298 20.356071
2298.5 20.060833
2299 20.202006
2299.5 19.966169
2300 20.141794
2300.5 20.085931
2301 20.103894
2301.5 20.061174
2302 19.961457
2302.5 20.300327
2303 20.064364
2303.5 20.305274
2304 20.111091
2304.5 20.293006
2305 20.16937
2305.5 20.142139
2306 20.357975
2306.5 20.245071
2307 20.472178
2307.5 20.200381
2308 20.467171
2308.5 19.993652
2309 20.265819
2309.5 20.198305
2310 20.256279
2310.5 20.132862
2311 20.11511
2311.5 20.370768
2312 20.174545
2312.5 20.317836
2313 20.119245
2313.5 20.422493
2314 20.200315
2314.5 20.486164
2315 20.392761
2315.5 20.346516
2316 20.496884
2316.5 20.474082
2317 20.615435
2317.5 20.2943
2318 20.490284
2318.5 20.368624
2319 20.513862
2319.5 20.314167
2320 20.348077
2320.5 20.493962
2321 20.501994
2321.5 20.431897
2322 20.266654
2322.5 20.580629
2323 20.326397
2323.5 20.598596
2324 20.344551
2324.5 20.656089
2325 20.528071
2325.5 20.689829
2326 20.537089
2326.5 20.372047
2327 20.607226
2327.5 20.463327
2328 20.714954
2328.5 20.447689
2329 20.714696
2329.5 20.544852
2330 20.671465
2330.5 20.614943
2331 20.468897
2331.5 20.713125
2332 20.483264
2332.5 20.776393
2333 20.363615
2333.5 20.677844
2334 20.4421
2334.5 20.689222
2335 20.665488
2335.5 20.68543
2336 20.645227
2336.5 20.502697
2337 20.865682
2337.5 20.719233
2338 20.892692
2338.5 20.559542
2339 20.753959
2339.5 20.704491
2340 20.713371
2340.5 20.681141
2341 20.68194
2341.5 20.856984
2342 20.634998
2342.5 20.844878
2343 20.627677
2343.5 20.78661
2344 20.69326
2344.5 20.833065
2345 20.782144
2345.5 20.730665
2346 20.891793
2346.5 20.9236
2347 20.980041
2347.5 20.473894
2348 20.869987
2348.5 20.625216
2349 20.855945
2349.5 20.708025
2350 20.767106
2350.5 20.806223
2351 20.84717
2351.5 20.977293
2352 20.760408
2352.5 21.156175
2353 20.78366
2353.5 21.123731
2354 20.896025
2354.5 21.015064
2355 21.026424
2355.5 21.073279
2356 21.005608
2356.5 20.712985
2357 21.053495
2357.5 20.727074
2358 21.054165
2358.5 20.727305
2359 21.014018
2359.5 20.850788
2360 20.969823
2360.5 20.945935
2361 20.939776
2361.5 21.088903
2362 20.842437
2362.5 21.11807
2363 21.069118
2363.5 21.208133
2364 21.112868
2364.5 21.30425
2365 21.20472
2365.5 21.083294
2366 21.127646
2366.5 20.925188
2367 21.164818
2367.5 21.010026
2368 21.131814
2368.5 20.910594
2369 21.200082
2369.5 21.149787
2370 21.214376
2370.5 21.208552
2371 21.017818
2371.5 21.25015
2372 21.049139
2372.5 21.140964
2373 20.959625
2373.5 21.313903
2374 21.16484
2374.5 21.273996
2375 21.071672
2375.5 21.176763
2376 21.196358
2376.5 21.243441
2377 21.372111
2377.5 21.191424
2378 21.421935
2378.5 21.203668
2379 21.351232
2379.5 21.312232
2380 21.282715
2380.5 21.357618
2381 21.242991
2381.5 21.353912
2382 21.015891
2382.5 21.29747
2383 21.137822
2383.5 21.340334
2384 21.148323
2384.5 21.353686
2385 21.260658
2385.5 21.384001
2386 21.46586
2386.5 21.353644
2387 21.516497
2387.5 21.348515
2388 21.709883
2388.5 21.354957
2389 21.353181
2389.5 21.355855
2390 21.444538
2390.5 21.402025
2391 21.362509
2391.5 21.476454
2392 21.213569
2392.5 21.585657
2393 21.27631
2393.5 21.510284
2394 21.342359
2394.5 21.576715
2395 21.576306
2395.5 21.63301
2396 21.476528
2396.5 21.312255
2397 21.61344
2397.5 21.42853
2398 21.630952
2398.5 21.375673
2399 21.621619
2399.5 21.449122
2400 21.455191
2400.5 21.604134
2401 21.531457
2401.5 21.800236
2402 21.599227
2402.5 21.824731
2403 21.531413
2403.5 21.644807
2404 21.503825
2404.5 21.630476
2405 21.533273
2405.5 21.357776
2406 21.680477
2406.5 21.592444
2407 21.787827
2407.5 21.581841
2408 21.830942
2408.5 21.617043
2409 21.789619
2409.5 21.696448
2410 21.750887
2410.5 21.80618
2411 21.731985
2411.5 21.756406
2412 21.585205
2412.5 21.88288
2413 21.670614
2413.5 21.87482
2414 21.665496
2414.5 21.809144
2415 21.879601
2415.5 21.651712
2416 21.756923
2416.5 21.502084
2417 21.864139
2417.5 21.53063
2418 21.897919
2418.5 21.677878
2419 21.852435
2419.5 21.820548
2420 21.907714
2420.5 21.828674
2421 21.774763
2421.5 21.962962
2422 21.724413
2422.5 22.06762
2423 21.899647
2423.5 22.134018
2424 21.976307
2424.5 21.941787
2425 21.864142
2425.5 21.695964
2426 21.874878
2426.5 21.662714
2427 22.004946
2427.5 21.761566
2428 21.955401
2428.5 21.836881
2429 22.112149
2429.5 21.942972
2430 21.991235
2430.5 21.992856
2431 21.663715
2431.5 22.05828
2432 21.941824
2432.5 22.074249
2433 21.823393
2433.5 21.967915
2434 21.921781
2434.5 21.955395
2435 22.092843
2435.5 21.953696
2436 22.257607
2436.5 21.963038
2437 22.195376
2437.5 21.862021
2438 22.14172
2438.5 21.984553
2439 22.1499
2439.5 22.022741
2440 21.968599
2440.5 22.284047
2441 21.999246
2441.5 22.115935
2442 21.822807
2442.5 22.108798
2443 21.990772
2443.5 22.120912
2444 21.910907
2444.5 22.039609
2445 22.178167
2445.5 22.015011
2446 22.226712
2446.5 21.986263
2447 22.329147
2447.5 22.130746
2448 22.259401
2448.5 22.111504
2449 21.995182
2449.5 22.12389
2450 22.113256
2450.5 22.218546
2451 21.972221
2451.5 22.339119
2452 21.890849
2452.5 22.296859
2453 22.075276
2453.5 22.246704
2454 22.166117
2454.5 22.290476
2455 22.314031
2455.5 22.222975
2456 22.382309
2456.5 21.978748
2457 22.292478
2457.5 22.195813
2458 22.271493
2458.5 22.203517
2459 22.391948
2459.5 22.365279
2460 22.233245
2460.5 22.399598
2461 22.157443
2461.5 22.440526
2462 22.13892
2462.5 22.423033
2463 22.128023
2463.5 22.325748
2464 22.337629
2464.5 22.340289
2465 22.312456
2465.5 22.05693
2466 22.438709
2466.5 22.285002
2467 22.410659
2467.5 22.163776
2468 22.344805
2468.5 22.286694
2469 22.40487
2469.5 22.345206
2470 22.214578
2470.5 22.484358
2471 22.356278
2471.5 22.629076
2472 22.507614
2472.5 22.588305
2473 22.524282
2473.5 22.610448
2474 22.51105
2474.5 22.399394
2475 22.654095
2475.5 22.458316
2476 22.614363
2476.5 22.320046
2477 22.741584
2477.5 22.571878
2478 22.773765
2478.5 22.457129
2479 22.55061
2479.5 22.581327
2480 22.55252
2480.5 22.684714
2481 22.444384
2481.5 22.652924
2482 22.462058
2482.5 22.760423
2483 22.603033
2483.5 22.498137
2484 22.607607
2484.5 22.576736
2485 22.747464
2485.5 22.332005
2486 22.694825
2486.5 22.294298
2487 22.791739
2487.5 22.54986
2488 22.708802
2488.5 22.615542
2489 22.650659
2489.5 22.797461
2490 22.641988
2490.5 22.726388
2491 22.503452
2491.5 22.818628
2492 22.565822
2492.5 22.771622
2493 22.693668
2493.5 22.827271
2494 22.915792
2494.5 22.789092
2495 23.110949
2495.5 22.715449
2496 23.007207
2496.5 22.701591
2497 22.9148
2497.5 22.521132
2498 22.750287
2498.5 22.823168
2499 22.71245
2499.5 22.819154
2500 22.609811
2500.5 22.99753
2501 22.756325
2501.5 22.833912
2502 22.63892
2502.5 22.804148
2503 22.779968
2503.5 22.99239
2504 22.93261
2504.5 22.902586
2505 23.163871
2505.5 23.051968
2506 23.06944
2506.5 22.787285
2507 23.060654
2507.5 22.904472
2508 22.982363
2508.5 22.86541
2509 22.855842
2509.5 23.063953
2510 22.951619
2510.5 23.012422
2511 22.679333
2511.5 23.044951
2512 22.810462
2512.5 23.035291
2513 22.943151
2513.5 22.969621
2514 22.915073
2514.5 22.881548
2515 23.06134
2515.5 22.963718
2516 23.299137
2516.5 23.034441
2517 23.337777
2517.5 23.286687
2518 23.265959
2518.5 23.314334
2519 23.096581
2519.5 23.197217
2520 22.934294
2520.5 23.183465
2521 22.918874
2521.5 23.302875
2522 23.057081
2522.5 23.20967
2523 22.995989
2523.5 23.039962
2524 23.160653
2524.5 23.076037
2525 23.286842
2525.5 23.068449
2526 23.345178
2526.5 23.23024
2527 23.352379
2527.5 23.134433
2528 23.331617
2528.5 23.279555
2529 23.195307
2529.5 23.315187
2530 23.09708
2530.5 23.358238
2531 23.081379
2531.5 23.169987
2532 23.06785
2532.5 23.291235
2533 23.379698
2533.5 23.286638
2534 23.368266
2534.5 23.171362
2535 23.524255
2535.5 23.289648
2536 23.546459
2536.5 23.15989
2537 23.554677
2537.5 23.429656
2538 23.547661
2538.5 23.405935
2539 23.418884
2539.5 23.477359
2540 23.32976
2540.5 23.507026
2541 23.22347
2541.5 23.502712
2542 23.27738
2542.5 23.473018
2543 23.32442
2543.5 23.320381
2544 23.600905
2544.5 23.468837
2545 23.663998
2545.5 23.18937
2546 23.47419
2546.5 23.114301
2547 23.507701
2547.5 23.355787
2548 23.596919
2548.5 24.068019
2549 22.756621
2549.5 23.577242
2550 23.013623
2550.5 23.698337
2551 23.399757
2551.5 23.971756
2552 24.23318
2552.5 23.466223
2553 23.417272
2553.5 23.269491
2554 24.014606
2554.5 25.414529
2555 23.265496
2555.5 22.631964
2556 23.995863
2556.5 23.369411
2557 23.547103
2557.5 23.849358
2558 23.913138
2558.5 23.387019
2559 23.702441
2559.5 23.670018
2560 23.358622
2560.5 23.791221
2561 23.516034
2561.5 23.564361
2562 23.585811
2562.5 23.845519
2563 23.61521
2563.5 23.417446
2564 23.654932
2564.5 23.694798
2565 23.886362
2565.5 23.679893
2566 23.971201
2566.5 23.644006
2567 23.720954
2567.5 23.631215
2568 23.74208
2568.5 23.723251
2569 23.656124
2569.5 23.956819
2570 23.704679
2570.5 23.843798
2571 23.421364
2571.5 23.69848
2572 23.427597
2572.5 23.75181
2573 23.794669
2573.5 23.855983
2574 23.868728
2574.5 23.75133
2575 23.934886
2575.5 23.854214
2576 24.142033
2576.5 23.867466
2577 24.127957
2577.5 23.943745
2578 23.883712
2578.5 23.914218
2579 23.824044
2579.5 24.058592
2580 23.790786
2580.5 24.016209
2581 23.724501
2581.5 24.064249
2582 23.767325
2582.5 23.888439
2583 23.805238
2583.5 23.843263
2584 24.042286
2584.5 23.775277
2585 23.968765
2585.5 23.524928
2586 24.050015
2586.5 23.947184
2587 24.013774
2587.5 23.898295
2588 24.089922
2588.5 24.177311
2589 24.061301
2589.5 23.969118
2590 23.865789
2590.5 24.080576
2591 23.862071
2591.5 23.896794
2592 23.686863
2592.5 23.870735
2593 23.97171
2593.5 24.101609
2594 24.161045
2594.5 23.927839
2595 24.163313
2595.5 24.044181
2596 24.139455
2596.5 23.754281
2597 24.185415
2597.5 24.026695
2598 24.233764
2598.5 24.182136
2599 24.116078
2599.5 24.25539
2600 24.132138
2600.5 24.382715
2601 24.194442
2601.5 24.403694
2602 24.231097
2602.5 24.29083
2603 24.20544
2603.5 24.228372
2604 24.387732
2604.5 24.097069
2605 24.442971
2605.5 23.893322
2606 24.301541
2606.5 23.790023
2607 24.228528
2607.5 24.012515
2608 24.116631
2608.5 24.061148
2609 24.184313
2609.5 24.484605
2610 24.2176
2610.5 24.360836
2611 24.094065
2611.5 24.451838
2612 24.296992
2612.5 24.382755
2613 24.390432
2613.5 24.373543
2614 24.3891
2614.5 24.211489
2615 24.422961
2615.5 24.115722
2616 24.426833
2616.5 24.308017
2617 24.40671
2617.5 24.226107
2618 24.243236
2618.5 24.369875
2619 24.34984
2619.5 24.37319
2620 24.039899
2620.5 24.3835
2621 24.364629
2621.5 24.335892
2622 24.502763
2622.5 24.261582
2623 24.491747
2623.5 24.282119
2624 24.417642
2624.5 24.338077
2625 24.626881
2625.5 24.474007
2626 24.549673
2626.5 24.670877
2627 24.447197
2627.5 24.659617
2628 24.365771
2628.5 24.460654
2629 24.272507
2629.5 24.479096
2630 24.31156
2630.5 24.298184
2631 24.238202
2631.5 24.218318
2632 24.510677
2632.5 24.148338
2633 24.568857
2633.5 24.273847
2634 24.558175
2634.5 24.521138
2635 24.827787
2635.5 24.799758
2636 24.728175
2636.5 24.949881
2637 24.660759
2637.5 24.859701
2638 24.66743
2638.5 24.957995
2639 24.630162
2639.5 24.742861
2640 24.770886
2640.5 24.594285
2641 24.692285
2641.5 24.687529
2642 24.876927
2642.5 24.535096
2643 24.939582
2643.5 25.098938
2644 25.08623
2644.5 24.916053
2645 24.888262
2645.5 24.67874
2646 25.259385
2646.5 25.232759
2647 24.23414
2647.5 25.066674
2648 24.841537
2648.5 25.674054
2649 24.829131
2649.5 25.359812
2650 25.000712
2650.5 25.115687
2651 25.052384
2651.5 24.921355
2652 25.187257
2652.5 25.009423
2653 25.182074
2653.5 24.904896
2654 25.068021
2654.5 24.848925
2655 24.902643
2655.5 24.928218
2656 24.928178
2656.5 25.041801
2657 24.767371
2657.5 25.117919
2658 24.952324
2658.5 25.235704
2659 24.996369
2659.5 25.284719
2660 25.092399
2660.5 25.189775
2661 25.298533
2661.5 25.271717
2662 25.234124
2662.5 25.062695
2663 25.307685
2663.5 25.154862
2664 25.432974
2664.5 25.381359
2665 25.535318
2665.5 25.206447
2666 25.026715
2666.5 25.313348
2667 24.926825
2667.5 25.177655
2668 24.588594
2668.5 24.96402
2669 24.466874
2669.5 24.913946
2670 24.69213
2670.5 24.595198
2671 24.492468
2671.5 24.359547
2672 24.514414
2672.5 24.429379
2673 25.041488
2673.5 24.407068
2674 24.30923
2674.5 24.33199
2675 24.695849
2675.5 24.997899
2676 24.689735
2676.5 25.135854
2677 24.918918
2677.5 24.976356
2678 24.776402
2678.5 24.832106
2679 24.674262
2679.5 24.761033
2680 24.636191
2680.5 24.553178
2681 24.781808
2681.5 24.527514
2682 24.798092
2682.5 24.562554
2683 24.870394
2683.5 24.892159
2684 25.0236
2684.5 24.969944
2685 25.206667
2685.5 25.106558
2686 25.237855
2686.5 25.412634
2687 25.242025
2687.5 25.485766
2688 25.232333
2688.5 25.34624
2689 25.047654
2689.5 25.265193
2690 25.372091
2690.5 25.338316
2691 25.263584
2691.5 25.097859
2692 25.363711
2692.5 25.140929
2693 25.383577
2693.5 25.063691
2694 25.451195
2694.5 25.36132
2695 25.495139
2695.5 25.330049
2696 25.375342
2696.5 25.392941
2697 25.215864
2697.5 25.268316
2698 25.080469
2698.5 25.428838
2699 25.265273
2699.5 25.588351
2700 25.557172
2700.5 25.566423
2701 25.818643
2701.5 25.467184
2702 25.645652
2702.5 25.284335
2703 25.607258
2703.5 25.312683
2704 25.623199
2704.5 25.551626
2705 25.518256
2705.5 25.479665
2706 25.404626
2706.5 25.625855
2707 25.472122
2707.5 25.621122
2708 25.338757
2708.5 25.584203
2709 25.425288
2709.5 25.499895
2710 25.525528
2710.5 25.556448
2711 25.712216
2711.5 25.486144
2712 25.717446
2712.5 25.377032
2713 25.622985
2713.5 25.261897
2714 25.306773
2714.5 25.21233
2715 25.454345
2715.5 25.555453
2716 25.518155
2716.5 25.616169
2717 25.493631
2717.5 25.860035
2718 25.737506
2718.5 26.012161
2719 25.75289
2719.5 25.995743
2720 25.666332
2720.5 25.810793
2721 25.723064
2721.5 25.532266
2722 25.560755
2722.5 25.357959
2723 25.383696
2723.5 24.958217
2724 25.168666
2724.5 25.055733
2725 25.135788
2725.5 25.219765
2726 25.261137
2726.5 25.519115
2727 25.368711
2727.5 25.632522
2728 25.336891
2728.5 25.810552
2729 25.550881
2729.5 25.826591
2730 25.690019
2730.5 25.760216
2731 25.748
2731.5 25.845373
2732 25.966761
2732.5 25.80336
2733 26.039159
2733.5 25.710064
2734 26.031411
2734.5 25.88948
2735 26.047227
2735.5 26.084277
2736 25.935289
2736.5 26.046205
2737 25.66725
2737.5 25.627112
2738 25.48503
2738.5 25.678492
2739 25.744411
2739.5 25.741202
2740 25.381702
2740.5 25.526309
2741 25.418401
2741.5 25.107956
2742 25.655943
2742.5 24.819967
2743 26.967061
2743.5 27.120888
2744 28.488871
2744.5 27.267039
2745 22.141653
2745.5 25.592989
2746 25.851175
2746.5 26.012078
2747 25.446022
2747.5 25.851288
2748 25.756371
2748.5 25.971252
2749 25.728184
2749.5 25.993052
2750 25.886649
2750.5 26.061213
2751 25.88414
2751.5 25.733826
2752 26.023304
2752.5 25.841898
2753 25.991863
2753.5 25.664836
2754 25.987777
2754.5 25.75511
2755 25.916329
2755.5 25.827074
2756 25.789014
2756.5 25.702846
2757 25.449359
2757.5 25.71618
2758 25.421429
2758.5 25.571966
2759 25.253215
2759.5 25.466427
2760 25.288188
2760.5 25.283509
2761 25.238585
2761.5 25.300476
2762 25.636908
2762.5 25.511518
2763 25.931475
2763.5 25.635713
2764 25.946501
2764.5 25.588435
2765 25.781053
2765.5 25.561744
2766 25.485
2766.5 25.643402
2767 25.445193
2767.5 25.64542
2768 25.225905
2768.5 25.69046
2769 25.346652
2769.5 25.6257
2770 25.494364
2770.5 25.744045
2771 25.688657
2771.5 25.638178
2772 25.806448
2772.5 25.624681
2773 25.786996
2773.5 25.525564
2774 25.696698
2774.5 25.544843
2775 25.688937
2775.5 25.65673
2776 25.723511
2776.5 25.74088
2777 25.485554
2777.5 25.832555
2778 25.836033
2778.5 25.955829
2779 25.594983
2779.5 25.953713
2780 25.671422
2780.5 25.830767
2781 25.665158
2781.5 25.809127
2782 25.838602
2782.5 25.709575
2783 25.868922
2783.5 25.740588
2784 26.135218
2784.5 25.866145
2785 25.922623
2785.5 25.696772
2786 25.804541
2786.5 26.020896
2787 25.749579
2787.5 25.871083
2788 25.576591
2788.5 25.990999
2789 25.55733
2789.5 26.023009
2790 25.752416
2790.5 25.946522
2791 25.895831
2791.5 25.924772
2792 26.107135
2792.5 25.998598
2793 26.266178
2793.5 25.713277
2794 26.226014
2794.5 26.07241
2795 26.290333
2795.5 26.089427
2796 26.257977
2796.5 26.2247
2797 26.19361
2797.5 26.44664
2798 26.033068
2798.5 26.405919
2799 26.066881
2799.5 26.401901
2800 26.452008
##END=
