##TITLE= W6902m-3mm-270824
##JCAMP-DX= 4.24
##DATA TYPE= UV/VIS SPECTRUM
##ORIGIN=  Lambda-SPX/P Scan
##OWNER= Optiplex/OPTIPLEX-755
##DATE= 27.08.2024 15:59:52
##SPECTROMETER/DATA SYSTEM= Lambda 19 UV/Vis/NIR
##SAMPLE DESCRIPTION= 270824
##DELTAX= 0.5
##XUNITS= NANOMETERS
##YUNITS= TRANSMITTANCE
$$COMMENT= RTUNITS 0-1
##XFACTOR= 1.0
##YFACTOR= 0.01
##FIRSTX= 200
##LASTX= 2800
##NPOINTS= 5201
##FIRSTY= 0.000148
##MAXY= 0.310012
##MINY= 0.000049
##XYDATA= (XY..XY)
200 0.014751
200.5 0.009645
201 0.006112
201.5 0.017402
202 0.008932
202.5 0.014414
203 0.012966
203.5 0.012031
204 0.012486
204.5 0.013484
205 0.016184
205.5 0.004877
206 0.015441
206.5 0.017222
207 0.009694
207.5 0.013341
208 0.011629
208.5 0.021126
209 0.012818
209.5 0.015206
210 0.005821
210.5 0.02412
211 0.009753
211.5 0.018849
212 0.008218
212.5 0.017277
213 0.013324
213.5 0.026313
214 0.016944
214.5 0.01333
215 0.018519
215.5 0.024513
216 0.026197
216.5 0.016415
217 0.028632
217.5 0.023488
218 0.028189
218.5 0.03021
219 0.024449
219.5 0.037971
220 0.0332
220.5 0.040724
221 0.029878
221.5 0.048929
222 0.035192
222.5 0.052967
223 0.047689
223.5 0.050153
224 0.059883
224.5 0.0707
225 0.073778
225.5 0.072903
226 0.091468
226.5 0.093021
227 0.106668
227.5 0.115969
228 0.125203
228.5 0.142927
229 0.153908
229.5 0.17043
230 0.177783
230.5 0.210429
231 0.211671
231.5 0.24488
232 0.256751
232.5 0.281589
233 0.300766
233.5 0.323071
234 0.339543
234.5 0.349497
235 0.377473
235.5 0.386426
236 0.400187
236.5 0.40675
237 0.426843
237.5 0.433178
238 0.441984
238.5 0.444747
239 0.448768
239.5 0.463078
240 0.45464
240.5 0.467917
241 0.453206
241.5 0.46772
242 0.459589
242.5 0.46507
243 0.452897
243.5 0.452756
244 0.450327
244.5 0.446517
245 0.446412
245.5 0.429896
246 0.444015
246.5 0.426696
247 0.435345
247.5 0.427849
248 0.421129
248.5 0.419877
249 0.412481
249.5 0.412173
250 0.403033
250.5 0.407665
251 0.390262
251.5 0.395398
252 0.384617
252.5 0.381715
253 0.380669
253.5 0.377449
254 0.370573
254.5 0.359244
255 0.367361
255.5 0.353077
256 0.359313
256.5 0.356747
257 0.343203
257.5 0.340169
258 0.342327
258.5 0.337875
259 0.334804
259.5 0.335073
260 0.329325
260.5 0.331309
261 0.3247
261.5 0.321623
262 0.314629
262.5 0.322247
263 0.320046
263.5 0.313931
264 0.305838
264.5 0.301977
265 0.310779
265.5 0.301073
266 0.303112
266.5 0.292584
267 0.297619
267.5 0.291381
268 0.29601
268.5 0.292954
269 0.290625
269.5 0.28615
270 0.290379
270.5 0.292029
271 0.282454
271.5 0.286675
272 0.283225
272.5 0.282607
273 0.279936
273.5 0.280465
274 0.282878
274.5 0.278184
275 0.286796
275.5 0.275193
276 0.28344
276.5 0.274076
277 0.283122
277.5 0.276581
278 0.284704
278.5 0.276014
279 0.28253
279.5 0.281483
280 0.273465
280.5 0.281799
281 0.282278
281.5 0.289251
282 0.283221
282.5 0.288555
283 0.282847
283.5 0.28922
284 0.292444
284.5 0.2895
285 0.298216
285.5 0.29429
286 0.298619
286.5 0.28757
287 0.309414
287.5 0.287397
288 0.308365
288.5 0.296203
289 0.305905
289.5 0.308159
290 0.318553
290.5 0.320596
291 0.313077
291.5 0.331534
292 0.323432
292.5 0.338627
293 0.336083
293.5 0.340718
294 0.344687
294.5 0.342511
295 0.356192
295.5 0.3522
296 0.367689
296.5 0.365527
297 0.38362
297.5 0.366292
298 0.389732
298.5 0.389813
299 0.405322
299.5 0.403015
300 0.407152
300.5 0.428146
301 0.4289
301.5 0.44276
302 0.446055
302.5 0.451167
303 0.455627
303.5 0.483595
304 0.489287
304.5 0.49063
305 0.508761
305.5 0.512494
306 0.534494
306.5 0.524304
307 0.551195
307.5 0.547374
308 0.569665
308.5 0.577609
309 0.586271
309.5 0.604468
310 0.617576
310.5 0.63219
311 0.64147
311.5 0.665639
312 0.669269
312.5 0.692975
313 0.70526
313.5 0.720497
314 0.745942
314.5 0.765701
315 0.781326
315.5 0.800068
316 0.817196
316.5 0.826344
317 0.857495
317.5 0.871129
318 0.890644
318.5 0.893413
319 0.906914
319.5 0.97024
320 0.990329
320.5 1.022966
321 1.02132
321.5 1.057397
322 1.071759
322.5 1.092301
323 1.128765
323.5 1.150035
324 1.162842
324.5 1.199771
325 1.211536
325.5 1.237848
326 1.262086
326.5 1.275062
327 1.30047
327.5 1.336453
328 1.344095
328.5 1.369566
329 1.395265
329.5 1.414433
330 1.44865
330.5 1.463086
331 1.49495
331.5 1.515437
332 1.540373
332.5 1.561671
333 1.57501
333.5 1.627082
334 1.626858
334.5 1.669028
335 1.687406
335.5 1.716316
336 1.729289
336.5 1.776636
337 1.7923
337.5 1.812633
338 1.850258
338.5 1.87215
339 1.8963
339.5 1.909664
340 1.933338
340.5 1.948776
341 1.994072
341.5 2.019062
342 2.039821
342.5 2.072901
343 2.089809
343.5 2.124888
344 2.136744
344.5 2.179337
345 2.153011
345.5 2.220433
346 2.242791
346.5 2.283072
347 2.300954
347.5 2.325672
348 2.359503
348.5 2.359699
349 2.413486
349.5 2.430607
350 2.464784
350.5 2.496204
351 2.519405
351.5 2.55354
352 2.56384
352.5 2.611651
353 2.63108
353.5 2.665813
354 2.668435
354.5 2.724604
355 2.727602
355.5 2.772169
356 2.788372
356.5 2.82997
357 2.842436
357.5 2.851012
358 2.91088
358.5 2.937765
359 2.956743
359.5 2.964704
360 3.015963
360.5 3.042521
361 3.074239
361.5 3.089963
362 3.119315
362.5 3.14498
363 3.193877
363.5 3.227782
364 3.247816
364.5 3.291086
365 3.29187
365.5 3.343884
366 3.377921
366.5 3.405721
367 3.445319
367.5 3.477875
368 3.532299
368.5 3.561846
369 3.589684
369.5 3.60891
370 3.688224
370.5 3.717164
371 3.743175
371.5 3.789602
372 3.857618
372.5 3.882961
373 3.953028
373.5 4.006163
374 4.040109
374.5 4.088977
375 4.157428
375.5 4.232351
376 4.266107
376.5 4.332501
377 4.404834
377.5 4.455774
378 4.531116
378.5 4.556309
379 4.650852
379.5 4.837867
380 4.879837
380.5 4.962176
381 5.068441
381.5 5.121194
382 5.25241
382.5 5.261536
383 5.370605
383.5 5.457582
384 5.568613
384.5 5.636073
385 5.751366
385.5 5.834192
386 5.945867
386.5 6.026826
387 6.149106
387.5 6.201088
388 6.325678
388.5 6.39533
389 6.496909
389.5 6.636117
390 6.710623
390.5 6.816325
391 6.863255
391.5 6.989402
392 7.086723
392.5 7.161458
393 7.272264
393.5 7.363781
394 7.418602
394.5 7.544919
395 7.652938
395.5 7.675077
396 7.790519
396.5 7.85643
397 7.952107
397.5 8.004145
398 8.148749
398.5 8.175627
399 8.298835
399.5 8.350106
400 8.39195
400.5 8.499858
401 8.503634
401.5 8.584058
402 8.621079
402.5 8.735263
403 8.738387
403.5 8.810222
404 8.878206
404.5 8.901202
405 8.971296
405.5 8.999256
406 9.073182
406.5 9.106752
407 9.119368
407.5 9.148327
408 9.197396
408.5 9.251767
409 9.274619
409.5 9.369081
410 9.33089
410.5 9.352536
411 9.364551
411.5 9.383731
412 9.430711
412.5 9.474251
413 9.477399
413.5 9.518265
414 9.523409
414.5 9.566573
415 9.572548
415.5 9.541444
416 9.599894
416.5 9.579656
417 9.641811
417.5 9.652618
418 9.637617
418.5 9.633934
419 9.654599
419.5 9.699316
420 9.658682
420.5 9.720194
421 9.711024
421.5 9.691076
422 9.680363
422.5 9.714635
423 9.686068
423.5 9.715407
424 9.711223
424.5 9.672605
425 9.750604
425.5 9.707447
426 9.687629
426.5 9.725897
427 9.70716
427.5 9.718082
428 9.685341
428.5 9.645078
429 9.663742
429.5 9.662786
430 9.694064
430.5 9.642949
431 9.640977
431.5 9.66199
432 9.634567
432.5 9.602741
433 9.631743
433.5 9.609634
434 9.629096
434.5 9.581839
435 9.599357
435.5 9.584268
436 9.557071
436.5 9.570723
437 9.538731
437.5 9.514857
438 9.491015
438.5 9.503658
439 9.505979
439.5 9.465758
440 9.458416
440.5 9.439943
441 9.443771
441.5 9.462649
442 9.42449
442.5 9.452256
443 9.376268
443.5 9.403513
444 9.380072
444.5 9.358412
445 9.38339
445.5 9.356572
446 9.392954
446.5 9.345363
447 9.384421
447.5 9.333335
448 9.314428
448.5 9.304677
449 9.310027
449.5 9.28346
450 9.304154
450.5 9.297642
451 9.30725
451.5 9.283722
452 9.27962
452.5 9.272949
453 9.248193
453.5 9.255114
454 9.280181
454.5 9.271922
455 9.282473
455.5 9.259824
456 9.265634
456.5 9.274718
457 9.274774
457.5 9.245461
458 9.255999
458.5 9.269548
459 9.280609
459.5 9.281502
460 9.280379
460.5 9.292326
461 9.259812
461.5 9.289334
462 9.271251
462.5 9.302463
463 9.305043
463.5 9.314311
464 9.291603
464.5 9.302332
465 9.298632
465.5 9.308583
466 9.327189
466.5 9.316336
467 9.332983
467.5 9.31837
468 9.307564
468.5 9.332452
469 9.349346
469.5 9.342048
470 9.326488
470.5 9.351646
471 9.333231
471.5 9.380592
472 9.350456
472.5 9.330937
473 9.372761
473.5 9.398707
474 9.380885
474.5 9.367859
475 9.398022
475.5 9.385615
476 9.411597
476.5 9.408213
477 9.445889
477.5 9.417731
478 9.44705
478.5 9.439917
479 9.437487
479.5 9.488762
480 9.47555
480.5 9.478193
481 9.461122
481.5 9.483294
482 9.486893
482.5 9.53855
483 9.502935
483.5 9.52829
484 9.557523
484.5 9.564398
485 9.563462
485.5 9.592304
486 9.58054
486.5 9.619652
487 9.624897
487.5 9.62891
488 9.622335
488.5 9.625342
489 9.633835
489.5 9.668273
490 9.665667
490.5 9.728614
491 9.706211
491.5 9.734787
492 9.713482
492.5 9.747849
493 9.727714
493.5 9.751555
494 9.76392
494.5 9.747604
495 9.774489
495.5 9.760407
496 9.770244
496.5 9.790885
497 9.787633
497.5 9.788601
498 9.844574
498.5 9.834997
499 9.845951
499.5 9.824073
500 9.848382
500.5 9.84688
501 9.826177
501.5 9.857204
502 9.855697
502.5 9.854093
503 9.835825
503.5 9.859087
504 9.87881
504.5 9.873666
505 9.865092
505.5 9.907342
506 9.872125
506.5 9.865116
507 9.908731
507.5 9.923912
508 9.905893
508.5 9.892236
509 9.920739
509.5 9.904892
510 9.900352
510.5 9.916139
511 9.924986
511.5 9.926404
512 9.927926
512.5 9.941322
513 9.905847
513.5 9.898894
514 9.926098
514.5 9.92805
515 9.909339
515.5 9.929622
516 9.916397
516.5 9.91637
517 9.919472
517.5 9.911675
518 9.916353
518.5 9.909238
519 9.914585
519.5 9.92687
520 9.924151
520.5 9.914383
521 9.909676
521.5 9.897296
522 9.901279
522.5 9.908242
523 9.893674
523.5 9.896159
524 9.910035
524.5 9.878583
525 9.876042
525.5 9.872288
526 9.875244
526.5 9.854379
527 9.861535
527.5 9.844019
528 9.860643
528.5 9.82745
529 9.822399
529.5 9.810519
530 9.839439
530.5 9.808947
531 9.794816
531.5 9.801507
532 9.780991
532.5 9.805684
533 9.792402
533.5 9.790712
534 9.758429
534.5 9.757847
535 9.746151
535.5 9.731077
536 9.744275
536.5 9.714772
537 9.725346
537.5 9.693304
538 9.717043
538.5 9.699458
539 9.711067
539.5 9.683762
540 9.666453
540.5 9.686883
541 9.661043
541.5 9.666105
542 9.636215
542.5 9.650733
543 9.613141
543.5 9.617244
544 9.624349
544.5 9.602827
545 9.611715
545.5 9.580033
546 9.578946
546.5 9.562635
547 9.56457
547.5 9.541181
548 9.537605
548.5 9.523844
549 9.542526
549.5 9.50877
550 9.500103
550.5 9.475461
551 9.474486
551.5 9.482088
552 9.47161
552.5 9.464953
553 9.453189
553.5 9.432399
554 9.423525
554.5 9.440447
555 9.390682
555.5 9.408209
556 9.380225
556.5 9.378902
557 9.379997
557.5 9.36017
558 9.361234
558.5 9.345043
559 9.330478
559.5 9.328668
560 9.284878
560.5 9.321712
561 9.281038
561.5 9.271141
562 9.247275
562.5 9.236031
563 9.228949
563.5 9.21474
564 9.215732
564.5 9.198219
565 9.195541
565.5 9.179329
566 9.162548
566.5 9.165852
567 9.152354
567.5 9.149224
568 9.138928
568.5 9.1259
569 9.121996
569.5 9.103701
570 9.088243
570.5 9.094967
571 9.071231
571.5 9.07774
572 9.06506
572.5 9.056909
573 9.018979
573.5 9.015018
574 9.026576
574.5 8.997525
575 8.990749
575.5 8.982447
576 8.994357
576.5 8.963954
577 8.973644
577.5 8.958134
578 8.936528
578.5 8.943247
579 8.941848
579.5 8.927888
580 8.906339
580.5 8.921476
581 8.898252
581.5 8.901147
582 8.895993
582.5 8.883745
583 8.864828
583.5 8.874214
584 8.869756
584.5 8.843289
585 8.858307
585.5 8.84949
586 8.847101
586.5 8.836494
587 8.838998
587.5 8.83586
588 8.826018
588.5 8.823352
589 8.793085
589.5 8.804655
590 8.794976
590.5 8.80036
591 8.804946
591.5 8.788605
592 8.796148
592.5 8.782228
593 8.795992
593.5 8.769683
594 8.774943
594.5 8.772583
595 8.768569
595.5 8.752611
596 8.746839
596.5 8.754537
597 8.761907
597.5 8.752158
598 8.757377
598.5 8.757042
599 8.73334
599.5 8.747099
600 8.747868
600.5 8.760632
601 8.748595
601.5 8.775558
602 8.739769
602.5 8.737589
603 8.750391
603.5 8.737022
604 8.741347
604.5 8.741264
605 8.746397
605.5 8.717946
606 8.730541
606.5 8.737922
607 8.746275
607.5 8.751994
608 8.725513
608.5 8.740445
609 8.731099
609.5 8.742168
610 8.732234
610.5 8.752521
611 8.719333
611.5 8.742187
612 8.741729
612.5 8.715
613 8.746909
613.5 8.73048
614 8.735673
614.5 8.725119
615 8.743124
615.5 8.751896
616 8.741084
616.5 8.724362
617 8.755162
617.5 8.744867
618 8.737199
618.5 8.741984
619 8.741573
619.5 8.755763
620 8.726965
620.5 8.730276
621 8.743273
621.5 8.745714
622 8.755411
622.5 8.779811
623 8.744083
623.5 8.759844
624 8.745947
624.5 8.744383
625 8.7552
625.5 8.75286
626 8.775166
626.5 8.767522
627 8.770473
627.5 8.764523
628 8.767332
628.5 8.770093
629 8.761227
629.5 8.786567
630 8.772882
630.5 8.775017
631 8.769923
631.5 8.78307
632 8.770147
632.5 8.772469
633 8.77708
633.5 8.770943
634 8.789568
634.5 8.760629
635 8.768027
635.5 8.788692
636 8.783738
636.5 8.792894
637 8.782251
637.5 8.791914
638 8.787818
638.5 8.790968
639 8.797465
639.5 8.79932
640 8.794676
640.5 8.809356
641 8.805697
641.5 8.79169
642 8.810408
642.5 8.822882
643 8.812089
643.5 8.799924
644 8.80961
644.5 8.827311
645 8.826528
645.5 8.812407
646 8.819729
646.5 8.824465
647 8.835533
647.5 8.836574
648 8.820826
648.5 8.843769
649 8.83297
649.5 8.833317
650 8.834575
650.5 8.866226
651 8.841244
651.5 8.847757
652 8.838057
652.5 8.843164
653 8.847144
653.5 8.866179
654 8.864872
654.5 8.861405
655 8.848958
655.5 8.852282
656 8.875103
656.5 8.852448
657 8.849672
657.5 8.85671
658 8.864968
658.5 8.874672
659 8.881593
659.5 8.869011
660 8.862593
660.5 8.876011
661 8.866778
661.5 8.866021
662 8.889093
662.5 8.871344
663 8.886378
663.5 8.87899
664 8.880505
664.5 8.891422
665 8.887729
665.5 8.892687
666 8.904885
666.5 8.900424
667 8.899312
667.5 8.911269
668 8.876536
668.5 8.915353
669 8.886086
669.5 8.899737
670 8.90858
670.5 8.914313
671 8.909759
671.5 8.9086
672 8.916118
672.5 8.913423
673 8.897185
673.5 8.913218
674 8.904567
674.5 8.911152
675 8.913459
675.5 8.89589
676 8.924314
676.5 8.908992
677 8.930057
677.5 8.927805
678 8.938591
678.5 8.919048
679 8.933973
679.5 8.925005
680 8.934077
680.5 8.955393
681 8.928398
681.5 8.898627
682 8.930819
682.5 8.940255
683 8.945666
683.5 8.927959
684 8.927956
684.5 8.9412
685 8.930607
685.5 8.933071
686 8.937657
686.5 8.92976
687 8.933226
687.5 8.927708
688 8.957265
688.5 8.943669
689 8.920417
689.5 8.944558
690 8.922408
690.5 8.938549
691 8.957956
691.5 8.949699
692 8.960714
692.5 8.949021
693 8.958029
693.5 8.948704
694 8.960397
694.5 8.941225
695 8.968356
695.5 8.949585
696 8.942233
696.5 8.972788
697 8.952614
697.5 8.977018
698 8.971453
698.5 8.979759
699 8.974842
699.5 8.957218
700 8.977246
700.5 8.975449
701 8.975578
701.5 8.956721
702 8.98979
702.5 8.982272
703 8.984057
703.5 8.982538
704 8.974071
704.5 8.99486
705 8.984232
705.5 8.977392
706 8.978868
706.5 9.025027
707 8.974185
707.5 9.011814
708 8.946575
708.5 8.989757
709 9.004083
709.5 8.97909
710 8.985117
710.5 8.982833
711 9.022354
711.5 9.002914
712 9.003271
712.5 9.015684
713 9.024946
713.5 9.023999
714 9.021588
714.5 9.018907
715 9.010715
715.5 9.024445
716 9.039167
716.5 9.048535
717 9.028526
717.5 9.028223
718 9.024443
718.5 9.028964
719 9.000345
719.5 9.047788
720 9.050945
720.5 9.056037
721 9.045963
721.5 9.082329
722 9.057502
722.5 9.03564
723 9.06831
723.5 9.048444
724 9.050547
724.5 9.019012
725 9.05173
725.5 9.065384
726 9.082906
726.5 9.080809
727 9.081558
727.5 9.090056
728 9.070543
728.5 9.079981
729 9.082329
729.5 9.088758
730 9.084626
730.5 9.092902
731 9.081811
731.5 9.096877
732 9.093865
732.5 9.102222
733 9.12469
733.5 9.107091
734 9.119992
734.5 9.109852
735 9.119466
735.5 9.115556
736 9.095158
736.5 9.113932
737 9.116083
737.5 9.116022
738 9.121462
738.5 9.142718
739 9.109414
739.5 9.127179
740 9.136511
740.5 9.112766
741 9.15303
741.5 9.18045
742 9.142977
742.5 9.152231
743 9.157901
743.5 9.129878
744 9.165554
744.5 9.15352
745 9.18913
745.5 9.171963
746 9.161031
746.5 9.194483
747 9.189536
747.5 9.171622
748 9.183042
748.5 9.213403
749 9.167571
749.5 9.198789
750 9.198365
750.5 9.191746
751 9.187143
751.5 9.221364
752 9.240574
752.5 9.201434
753 9.220646
753.5 9.211188
754 9.223031
754.5 9.197147
755 9.250917
755.5 9.219532
756 9.218772
756.5 9.254875
757 9.232633
757.5 9.231698
758 9.239972
758.5 9.292364
759 9.253009
759.5 9.270038
760 9.260406
760.5 9.245253
761 9.267725
761.5 9.246592
762 9.273498
762.5 9.252612
763 9.258041
763.5 9.271733
764 9.261463
764.5 9.264944
765 9.275834
765.5 9.311287
766 9.297051
766.5 9.271771
767 9.300927
767.5 9.328049
768 9.287801
768.5 9.330172
769 9.270275
769.5 9.29443
770 9.317853
770.5 9.356463
771 9.312779
771.5 9.338341
772 9.326852
772.5 9.342337
773 9.335615
773.5 9.326623
774 9.339727
774.5 9.337735
775 9.345136
775.5 9.348418
776 9.339617
776.5 9.349615
777 9.333108
777.5 9.34646
778 9.350067
778.5 9.361652
779 9.350625
779.5 9.366614
780 9.371279
780.5 9.354025
781 9.361458
781.5 9.338876
782 9.400719
782.5 9.386078
783 9.372614
783.5 9.414951
784 9.43057
784.5 9.401127
785 9.401219
785.5 9.401944
786 9.40771
786.5 9.390364
787 9.395246
787.5 9.445868
788 9.428304
788.5 9.403318
789 9.4386
789.5 9.447591
790 9.427856
790.5 9.402234
791 9.421831
791.5 9.4398
792 9.43161
792.5 9.446052
793 9.435517
793.5 9.434292
794 9.475792
794.5 9.449808
795 9.470407
795.5 9.439106
796 9.428044
796.5 9.445711
797 9.451182
797.5 9.452747
798 9.507201
798.5 9.456273
799 9.429303
799.5 9.508747
800 9.458623
800.5 9.501503
801 9.491333
801.5 9.523165
802 9.472882
802.5 9.488378
803 9.509461
803.5 9.506243
804 9.46935
804.5 9.470326
805 9.470306
805.5 9.491944
806 9.511611
806.5 9.48482
807 9.538707
807.5 9.509118
808 9.51061
808.5 9.541292
809 9.460448
809.5 9.518758
810 9.51074
810.5 9.518996
811 9.501139
811.5 9.539329
812 9.530712
812.5 9.584285
813 9.544212
813.5 9.497494
814 9.528036
814.5 9.530947
815 9.549387
815.5 9.503344
816 9.517146
816.5 9.534679
817 9.555354
817.5 9.51797
818 9.576332
818.5 9.514175
819 9.542781
819.5 9.541573
820 9.540472
820.5 9.551415
821 9.562075
821.5 9.546313
822 9.569786
822.5 9.528427
823 9.54573
823.5 9.544431
824 9.532034
824.5 9.505115
825 9.557948
825.5 9.544304
826 9.510881
826.5 9.505066
827 9.512263
827.5 9.563442
828 9.526179
828.5 9.546117
829 9.540646
829.5 9.549932
830 9.531658
830.5 9.567584
831 9.556837
831.5 9.532134
832 9.511621
832.5 9.52195
833 9.483484
833.5 9.456009
834 9.485982
834.5 9.503435
835 9.459122
835.5 9.507141
836 9.520049
836.5 9.479009
837 9.517324
837.5 9.482192
838 9.491277
838.5 9.480114
839 9.463265
839.5 9.540305
840 9.463358
840.5 9.482189
841 9.476878
841.5 9.482189
842 9.476828
842.5 9.417758
843 9.406167
843.5 9.404867
844 9.445628
844.5 9.437696
845 9.403963
845.5 9.39642
846 9.422071
846.5 9.408029
847 9.417639
847.5 9.463845
848 9.474455
848.5 9.385507
849 9.417246
849.5 9.362651
850 9.452566
850.5 9.433594
851 9.406132
851.5 9.405557
852 9.448811
852.5 9.422461
853 9.462974
853.5 9.436974
854 9.43362
854.5 9.50125
855 9.474928
855.5 9.420379
856 9.41534
856.5 9.446337
857 9.40541
857.5 9.462146
858 9.488291
858.5 9.47399
859 9.473994
859.5 9.402225
860 9.56054
860.5 9.435014
861 6.738802
861.5 6.518564
862 6.731243
862.5 6.495222
863 6.664769
863.5 6.593222
864 6.637355
864.5 6.645751
865 6.647258
865.5 6.784868
866 6.43799
866.5 6.791423
867 6.64226
867.5 6.740745
868 6.52925
868.5 6.715354
869 6.651215
869.5 6.70113
870 6.700581
870.5 6.600775
871 6.804342
871.5 6.683948
872 6.777219
872.5 6.56465
873 6.729376
873.5 6.65649
874 6.777944
874.5 6.730034
875 6.552716
875.5 6.79159
876 6.60742
876.5 6.757197
877 6.565085
877.5 6.730729
878 6.634498
878.5 6.738938
879 6.767302
879.5 6.805895
880 6.774869
880.5 6.785146
881 6.791352
881.5 6.645786
882 6.902647
882.5 6.736842
883 6.841497
883.5 6.67689
884 6.745432
884.5 6.804743
885 6.793286
885.5 6.755976
886 6.609299
886.5 6.844579
887 6.603576
887.5 6.852382
888 6.532986
888.5 6.787766
889 6.701019
889.5 6.914594
890 6.789174
890.5 6.757489
891 6.802021
891.5 6.68911
892 6.937291
892.5 6.764477
893 6.867713
893.5 6.800973
894 6.856315
894.5 6.720024
895 6.731614
895.5 6.936073
896 6.719815
896.5 6.933899
897 6.60672
897.5 6.868673
898 6.603385
898.5 6.92393
899 6.841226
899.5 6.854054
900 6.789009
900.5 6.733476
901 6.904826
901.5 6.785221
902 6.941861
902.5 6.692076
903 6.895065
903.5 6.851967
904 6.863379
904.5 6.817882
905 6.90476
905.5 6.891541
906 6.814333
906.5 6.972566
907 6.762226
907.5 6.939607
908 6.762651
908.5 6.924359
909 6.832362
909.5 6.848701
910 6.785292
910.5 6.897862
911 6.806739
911.5 6.582897
912 6.993759
912.5 6.816297
913 6.998952
913.5 6.797771
914 6.879993
914.5 6.841238
915 6.883042
915.5 6.98639
916 6.820987
916.5 6.991641
917 6.912709
917.5 6.931873
918 6.716344
918.5 6.979534
919 6.828596
919.5 6.991867
920 6.946974
920.5 6.896862
921 7.002132
921.5 6.809616
922 6.943209
922.5 6.697202
923 6.984751
923.5 6.873515
924 6.917566
924.5 6.917148
925 6.834906
925.5 6.940313
926 6.968604
926.5 7.023312
927 6.858454
927.5 7.026235
928 6.918215
928.5 7.023492
929 6.821295
929.5 6.878094
930 6.883299
930.5 6.955351
931 6.960357
931.5 6.817904
932 7.033518
932.5 6.929001
933 7.049975
933.5 6.826385
934 7.085886
934.5 6.834219
935 6.958628
935.5 6.870549
936 7.021353
936.5 7.001434
937 6.942268
937.5 7.012106
938 6.94928
938.5 7.053304
939 6.906347
939.5 7.028943
940 6.95604
940.5 6.930044
941 7.106312
941.5 6.959198
942 7.09888
942.5 6.814165
943 7.161915
943.5 6.851876
944 7.091318
944.5 6.885245
945 7.061584
945.5 6.915607
946 6.937568
946.5 7.076047
947 6.966932
947.5 7.142109
948 6.993565
948.5 7.124355
949 6.91935
949.5 7.047797
950 7.108504
950.5 7.058077
951 7.098507
951.5 6.906256
952 7.156544
952.5 6.844964
953 7.1709
953.5 6.932302
954 7.06059
954.5 6.97316
955 7.111123
955.5 6.996911
956 7.034278
956.5 7.08162
957 6.826985
957.5 7.110813
958 6.96472
958.5 7.175757
959 6.990666
959.5 7.165419
960 7.072609
960.5 7.021113
961 7.050742
961.5 7.009975
962 7.273811
962.5 6.941412
963 7.192417
963.5 6.911533
964 7.100011
964.5 7.085688
965 7.068841
965.5 7.030083
966 7.011841
966.5 7.127668
967 7.041532
967.5 7.16835
968 6.912339
968.5 7.213227
969 7.094096
969.5 7.165482
970 6.996388
970.5 7.194547
971 7.104547
971.5 7.141428
972 7.187116
972.5 7.028
973 7.27463
973.5 7.010539
974 7.140468
974.5 7.039303
975 7.242259
975.5 7.135154
976 7.175766
976.5 7.178117
977 6.949414
977.5 7.158595
978 7.081549
978.5 7.189219
979 7.013926
979.5 7.254534
980 7.081207
980.5 7.311329
981 7.03807
981.5 7.230593
982 7.257053
982.5 7.162819
983 7.15453
983.5 7.098059
984 7.249468
984.5 7.114596
985 7.273173
985.5 7.109163
986 7.154187
986.5 7.251848
987 7.181893
987.5 7.164756
988 7.048064
988.5 7.291077
989 7.135881
989.5 7.298487
990 7.086769
990.5 7.271353
991 7.102361
991.5 7.209463
992 7.252622
992.5 7.156531
993 7.26475
993.5 7.184165
994 7.269778
994.5 7.192242
995 7.336792
995.5 7.197421
996 7.220243
996.5 7.157767
997 7.141712
997.5 7.371666
998 7.1532
998.5 7.304154
999 6.978181
999.5 7.410201
1000 7.13279
1000.5 7.385129
1001 7.163962
1001.5 7.203843
1002 7.242855
1002.5 7.233029
1003 7.370915
1003.5 7.200556
1004 7.404194
1004.5 7.20618
1005 7.319906
1005.5 7.297768
1006 7.308577
1006.5 7.25844
1007 7.31125
1007.5 7.404485
1008 7.108877
1008.5 7.334504
1009 7.131466
1009.5 7.415223
1010 7.161526
1010.5 7.27422
1011 7.154676
1011.5 7.32047
1012 7.37006
1012.5 7.253665
1013 7.2865
1013.5 7.096587
1014 7.413352
1014.5 7.25008
1015 7.37279
1015.5 7.219529
1016 7.296994
1016.5 7.369229
1017 7.315067
1017.5 7.451784
1018 7.27677
1018.5 7.494295
1019 7.224482
1019.5 7.348533
1020 7.187222
1020.5 7.46911
1021 7.267684
1021.5 7.340349
1022 7.322325
1022.5 7.344913
1023 7.406472
1023.5 7.286323
1024 7.386734
1024.5 7.244547
1025 7.474516
1025.5 7.288548
1026 7.492622
1026.5 7.359
1027 7.427746
1027.5 7.450099
1028 7.314543
1028.5 7.492587
1029 7.289863
1029.5 7.519078
1030 7.314157
1030.5 7.372239
1031 7.210957
1031.5 7.309511
1032 7.430329
1032.5 7.379534
1033 7.380717
1033.5 7.266548
1034 7.483927
1034.5 7.302742
1035 7.498289
1035.5 7.285571
1036 7.531215
1036.5 7.351741
1037 7.541192
1037.5 7.347968
1038 7.418798
1038.5 7.498533
1039 7.504892
1039.5 7.428066
1040 7.375655
1040.5 7.466334
1041 7.350323
1041.5 7.533387
1042 7.387444
1042.5 7.413395
1043 7.506747
1043.5 7.509589
1044 7.550267
1044.5 7.33243
1045 7.567878
1045.5 7.224527
1046 7.525303
1046.5 7.314353
1047 7.540192
1047.5 7.47937
1048 7.54175
1048.5 7.640123
1049 7.579412
1049.5 7.597478
1050 7.397012
1050.5 7.571251
1051 7.410528
1051.5 7.548038
1052 7.568622
1052.5 7.575456
1053 7.586944
1053.5 7.442232
1054 7.612052
1054.5 7.387982
1055 7.517079
1055.5 7.295069
1056 7.636137
1056.5 7.384076
1057 7.634092
1057.5 7.545024
1058 7.533435
1058.5 7.513781
1059 7.386107
1059.5 7.496978
1060 7.481543
1060.5 7.763632
1061 7.523149
1061.5 7.715049
1062 7.604182
1062.5 7.554711
1063 7.514875
1063.5 7.560723
1064 7.709289
1064.5 7.497317
1065 7.685678
1065.5 7.441014
1066 7.715276
1066.5 7.459273
1067 7.612272
1067.5 7.417972
1068 7.617195
1068.5 7.639369
1069 7.53605
1069.5 7.607003
1070 7.412165
1070.5 7.782569
1071 7.496867
1071.5 7.661494
1072 7.595193
1072.5 7.663833
1073 7.691792
1073.5 7.65354
1074 7.690969
1074.5 7.570577
1075 7.783584
1075.5 7.626084
1076 7.726885
1076.5 7.604247
1077 7.672623
1077.5 7.670296
1078 7.626355
1078.5 7.575051
1079 7.518022
1079.5 7.760996
1080 7.735406
1080.5 7.767341
1081 7.527389
1081.5 7.712264
1082 7.566138
1082.5 7.667136
1083 7.596747
1083.5 7.751651
1084 7.819561
1084.5 7.644773
1085 7.800873
1085.5 7.570709
1086 7.785291
1086.5 7.657223
1087 7.789313
1087.5 7.739816
1088 7.59984
1088.5 7.7566
1089 7.732361
1089.5 7.728367
1090 7.63619
1090.5 7.783351
1091 7.623901
1091.5 7.77934
1092 7.582018
1092.5 7.918316
1093 7.591432
1093.5 7.740453
1094 7.713144
1094.5 7.820593
1095 7.836245
1095.5 7.68481
1096 7.903013
1096.5 7.756618
1097 7.919428
1097.5 7.673065
1098 7.777286
1098.5 7.632717
1099 7.734602
1099.5 7.98169
1100 7.775147
1100.5 7.935717
1101 7.604525
1101.5 7.953
1102 7.633176
1102.5 7.938368
1103 7.761326
1103.5 7.855546
1104 7.793651
1104.5 7.733367
1105 7.855349
1105.5 7.806429
1106 7.965026
1106.5 7.787447
1107 7.960867
1107.5 7.86185
1108 7.908422
1108.5 7.966313
1109 7.898774
1109.5 7.923593
1110 7.805749
1110.5 7.944507
1111 7.745026
1111.5 8.077837
1112 7.736678
1112.5 7.929336
1113 7.794561
1113.5 7.94426
1114 7.896534
1114.5 7.882106
1115 7.92631
1115.5 7.705633
1116 7.971469
1116.5 7.867698
1117 7.973116
1117.5 7.814069
1118 7.972621
1118.5 7.830358
1119 7.891022
1119.5 7.882896
1120 7.829453
1120.5 7.9664
1121 7.798558
1121.5 8.019701
1122 7.769927
1122.5 8.092018
1123 7.977677
1123.5 8.033152
1124 7.99362
1124.5 7.896445
1125 8.023745
1125.5 7.957608
1126 8.10316
1126.5 7.819892
1127 8.111545
1127.5 7.990656
1128 8.046465
1128.5 8.00963
1129 8.062733
1129.5 8.143402
1130 8.013278
1130.5 8.100103
1131 7.887463
1131.5 8.08716
1132 7.822794
1132.5 7.84528
1133 7.716741
1133.5 7.863931
1134 7.893403
1134.5 8.009916
1135 8.006698
1135.5 7.920181
1136 8.121936
1136.5 7.942276
1137 8.044212
1137.5 7.881162
1138 8.093362
1138.5 8.084606
1139 8.117946
1139.5 8.006649
1140 8.041725
1140.5 8.120607
1141 8.092719
1141.5 8.119746
1142 7.88875
1142.5 8.079536
1143 7.977442
1143.5 8.158973
1144 8.067042
1144.5 8.104027
1145 8.12874
1145.5 8.131797
1146 8.177016
1146.5 8.010924
1147 8.28393
1147.5 7.977667
1148 8.211269
1148.5 7.941466
1149 8.142211
1149.5 8.056877
1150 8.192663
1150.5 8.099447
1151 8.018541
1151.5 8.087085
1152 7.980417
1152.5 8.26494
1153 8.142314
1153.5 8.279265
1154 8.065993
1154.5 8.257888
1155 8.128369
1155.5 8.167242
1156 8.218934
1156.5 8.053695
1157 8.259057
1157.5 7.93572
1158 8.174271
1158.5 7.924728
1159 8.189616
1159.5 8.131605
1160 8.245547
1160.5 8.147832
1161 8.104189
1161.5 8.294978
1162 8.201047
1162.5 8.270688
1163 8.125489
1163.5 8.294784
1164 8.18115
1164.5 8.257579
1165 8.233892
1165.5 8.209965
1166 8.285691
1166.5 8.111906
1167 8.380428
1167.5 8.196338
1168 8.40298
1168.5 8.195634
1169 8.290335
1169.5 8.116592
1170 8.234619
1170.5 8.331155
1171 8.254672
1171.5 8.253231
1172 8.14001
1172.5 8.335564
1173 8.275023
1173.5 8.404811
1174 8.287922
1174.5 8.342124
1175 8.267055
1175.5 8.323722
1176 8.348462
1176.5 8.232316
1177 8.383378
1177.5 8.199802
1178 8.385088
1178.5 8.253042
1179 8.427855
1179.5 8.247603
1180 8.359493
1180.5 8.301578
1181 8.249576
1181.5 8.348098
1182 8.350987
1182.5 8.343726
1183 8.13995
1183.5 8.458566
1184 8.281896
1184.5 8.453008
1185 8.261216
1185.5 8.351972
1186 8.401676
1186.5 8.293513
1187 8.42737
1187.5 8.189101
1188 8.333015
1188.5 8.178727
1189 8.242415
1189.5 8.063737
1190 8.111504
1190.5 8.4198
1191 8.273157
1191.5 8.458418
1192 8.298453
1192.5 8.431766
1193 8.359342
1193.5 8.2995
1194 8.489423
1194.5 8.455135
1195 8.470193
1195.5 8.251613
1196 8.568821
1196.5 8.378036
1197 8.403673
1197.5 8.34488
1198 8.472013
1198.5 8.441263
1199 8.43201
1199.5 8.495864
1200 8.444307
1200.5 8.59479
1201 8.368623
1201.5 8.492389
1202 8.470781
1202.5 8.501181
1203 8.503265
1203.5 8.520778
1204 8.504625
1204.5 8.302666
1205 8.574492
1205.5 8.41141
1206 8.491649
1206.5 8.303522
1207 8.527996
1207.5 8.369979
1208 8.508812
1208.5 8.399559
1209 8.559978
1209.5 8.522309
1210 8.50733
1210.5 8.532389
1211 8.511001
1211.5 8.741423
1212 8.419707
1212.5 8.584198
1213 8.481234
1213.5 8.554832
1214 8.615478
1214.5 8.614101
1215 8.654036
1215.5 8.393967
1216 8.682574
1216.5 8.387061
1217 8.724442
1217.5 8.411685
1218 8.596019
1218.5 8.492568
1219 8.541927
1219.5 8.550438
1220 8.474729
1220.5 8.579268
1221 8.457451
1221.5 8.689272
1222 8.661429
1222.5 8.764175
1223 8.65057
1223.5 8.706871
1224 8.628057
1224.5 8.592854
1225 8.685838
1225.5 8.581892
1226 8.76704
1226.5 8.462822
1227 8.789569
1227.5 8.517069
1228 8.778796
1228.5 8.567572
1229 8.775304
1229.5 8.635367
1230 8.499441
1230.5 8.72432
1231 8.634675
1231.5 8.80212
1232 8.572827
1232.5 8.830142
1233 8.69102
1233.5 8.719371
1234 8.725184
1234.5 8.657316
1235 8.732218
1235.5 8.738155
1236 8.785594
1236.5 8.662277
1237 8.812468
1237.5 8.774628
1238 8.810548
1238.5 8.68106
1239 8.810768
1239.5 8.76532
1240 8.744264
1240.5 8.722705
1241 8.620281
1241.5 8.90753
1242 8.743215
1242.5 8.813037
1243 8.587243
1243.5 8.86386
1244 8.607035
1244.5 8.774126
1245 8.791478
1245.5 8.735354
1246 8.78652
1246.5 8.680832
1247 8.819149
1247.5 8.647728
1248 8.743472
1248.5 8.589391
1249 8.863848
1249.5 8.832169
1250 8.765829
1250.5 8.976389
1251 8.956307
1251.5 8.903692
1252 8.733829
1252.5 8.992518
1253 8.655878
1253.5 8.943692
1254 8.75509
1254.5 8.841392
1255 8.817814
1255.5 8.885059
1256 8.923556
1256.5 8.845374
1257 8.980527
1257.5 8.745922
1258 8.971439
1258.5 8.777612
1259 9.006563
1259.5 8.801652
1260 8.966254
1260.5 8.831937
1261 8.80972
1261.5 8.953661
1262 8.783168
1262.5 8.988138
1263 8.705667
1263.5 8.987342
1264 8.765004
1264.5 9.075885
1265 8.855441
1265.5 8.92714
1266 8.894017
1266.5 8.864082
1267 9.040273
1267.5 8.896138
1268 9.056437
1268.5 8.85151
1269 9.030282
1269.5 8.923388
1270 9.020821
1270.5 8.918694
1271 9.064186
1271.5 9.07799
1272 8.913339
1272.5 9.116682
1273 8.835717
1273.5 9.145166
1274 8.900961
1274.5 9.003473
1275 8.8952
1275.5 9.043472
1276 9.073009
1276.5 9.062824
1277 8.997443
1277.5 8.797957
1278 9.212439
1278.5 9.084789
1279 9.118637
1279.5 8.972231
1280 9.121877
1280.5 8.990832
1281 9.070359
1281.5 9.111612
1282 8.95581
1282.5 9.119747
1283 9.082499
1283.5 9.244489
1284 9.037269
1284.5 9.072628
1285 9.029207
1285.5 9.09035
1286 9.063689
1286.5 9.017122
1287 9.192417
1287.5 9.120185
1288 9.08075
1288.5 9.015939
1289 9.148111
1289.5 9.024777
1290 9.159717
1290.5 9.025446
1291 9.181681
1291.5 9.120131
1292 9.169465
1292.5 9.170359
1293 9.165066
1293.5 9.250531
1294 9.054325
1294.5 9.154852
1295 9.089582
1295.5 9.179421
1296 9.117748
1296.5 9.212078
1297 9.231164
1297.5 9.123334
1298 9.248587
1298.5 9.108773
1299 9.22506
1299.5 8.980603
1300 9.296636
1300.5 9.088237
1301 9.297942
1301.5 9.142014
1302 9.235058
1302.5 9.202269
1303 9.23491
1303.5 9.248254
1304 9.191431
1304.5 9.386181
1305 9.148893
1305.5 9.41103
1306 9.2706
1306.5 9.368034
1307 9.401554
1307.5 9.346257
1308 9.463087
1308.5 9.294949
1309 9.428854
1309.5 9.075897
1310 9.331067
1310.5 9.14178
1311 9.324802
1311.5 9.125037
1312 9.353931
1312.5 9.259741
1313 9.313451
1313.5 9.400918
1314 9.192043
1314.5 9.38105
1315 9.278075
1315.5 9.394369
1316 9.244859
1316.5 9.293327
1317 9.288645
1317.5 9.255163
1318 9.414176
1318.5 9.190111
1319 9.450246
1319.5 9.188382
1320 9.419754
1320.5 9.18344
1321 9.390707
1321.5 9.218907
1322 9.317658
1322.5 9.323651
1323 9.196045
1323.5 9.466928
1324 9.352727
1324.5 9.396385
1325 9.272782
1325.5 9.371118
1326 9.389254
1326.5 9.331971
1327 9.408359
1327.5 9.419762
1328 9.463191
1328.5 9.335585
1329 9.45735
1329.5 9.256954
1330 9.503683
1330.5 9.401713
1331 9.49031
1331.5 9.352636
1332 9.381244
1332.5 9.50453
1333 9.430765
1333.5 9.444129
1334 9.303555
1334.5 9.604428
1335 9.443832
1335.5 9.527033
1336 9.42265
1336.5 9.604295
1337 9.477468
1337.5 9.622571
1338 9.673445
1338.5 9.552509
1339 9.723091
1339.5 9.624911
1340 9.600659
1340.5 9.42153
1341 9.470797
1341.5 9.367453
1342 9.505875
1342.5 9.389395
1343 9.424274
1343.5 9.603958
1344 9.559009
1344.5 9.624179
1345 9.418336
1345.5 9.662284
1346 9.454797
1346.5 9.613018
1347 9.448729
1347.5 9.711302
1348 9.679842
1348.5 9.650909
1349 9.600224
1349.5 9.556556
1350 9.641329
1350.5 9.492094
1351 9.67894
1351.5 9.535231
1352 9.644217
1352.5 9.563296
1353 9.640283
1353.5 9.40927
1354 9.313975
1354.5 9.679651
1355 9.652606
1355.5 9.901302
1356 9.490498
1356.5 9.679629
1357 9.603512
1357.5 9.866857
1358 9.619216
1358.5 9.600855
1359 9.596844
1359.5 9.538912
1360 9.654804
1360.5 9.291411
1361 9.44355
1361.5 9.552901
1362 10.018829
1362.5 10.066692
1363 9.701439
1363.5 9.403969
1364 9.402327
1364.5 9.894922
1365 9.938744
1365.5 10.021999
1366 9.441143
1366.5 9.556491
1367 9.314893
1367.5 9.81933
1368 9.708471
1368.5 9.980316
1369 9.777468
1369.5 9.483141
1370 9.642538
1370.5 9.598694
1371 9.928715
1371.5 9.77788
1372 9.959254
1372.5 9.794413
1373 9.864606
1373.5 9.714637
1374 9.822448
1374.5 9.963923
1375 9.80979
1375.5 9.906515
1376 9.738331
1376.5 9.985267
1377 9.706175
1377.5 9.729347
1378 9.701327
1378.5 10.031746
1379 9.776559
1379.5 9.431838
1380 9.708519
1380.5 9.987517
1381 9.987963
1381.5 9.234526
1382 9.676136
1382.5 9.826072
1383 10.28485
1383.5 9.919885
1384 9.738126
1384.5 9.926593
1385 9.924959
1385.5 10.070761
1386 9.877714
1386.5 9.899006
1387 9.513379
1387.5 9.832551
1388 10.013562
1388.5 10.040139
1389 10.10504
1389.5 10.096103
1390 10.104535
1390.5 9.809598
1391 9.847133
1391.5 9.459338
1392 10.017817
1392.5 10.000893
1393 10.238415
1393.5 9.811486
1394 9.724348
1394.5 9.688894
1395 9.920963
1395.5 10.018509
1396 9.994692
1396.5 10.297637
1397 10.233243
1397.5 10.109226
1398 9.879465
1398.5 9.934279
1399 9.674567
1399.5 9.729759
1400 9.996853
1400.5 10.130034
1401 10.277794
1401.5 10.16596
1402 10.204113
1402.5 9.855714
1403 10.018463
1403.5 9.626982
1404 9.81155
1404.5 9.968028
1405 10.328805
1405.5 10.203317
1406 9.861008
1406.5 9.979871
1407 10.069345
1407.5 10.34646
1408 9.839649
1408.5 9.887331
1409 10.168865
1409.5 10.277004
1410 10.322569
1410.5 9.972873
1411 10.151119
1411.5 9.980702
1412 10.229036
1412.5 9.805708
1413 9.973161
1413.5 9.788524
1414 10.270371
1414.5 10.183273
1415 10.345279
1415.5 10.231011
1416 9.998974
1416.5 10.125081
1417 9.991843
1417.5 10.091812
1418 9.856393
1418.5 10.180413
1419 10.227263
1419.5 10.34274
1420 10.374837
1420.5 10.161511
1421 10.208157
1421.5 10.012743
1422 10.108719
1422.5 10.001611
1423 10.385325
1423.5 10.284486
1424 10.362881
1424.5 10.139123
1425 10.098889
1425.5 10.221116
1426 10.073169
1426.5 10.196302
1427 9.987393
1427.5 10.303803
1428 10.168345
1428.5 10.357647
1429 10.088044
1429.5 10.188419
1430 10.127599
1430.5 10.19029
1431 10.302816
1431.5 10.259131
1432 10.494955
1432.5 10.330455
1433 10.354268
1433.5 10.16308
1434 10.460078
1434.5 10.454163
1435 10.314063
1435.5 10.308769
1436 10.205626
1436.5 10.274792
1437 10.266875
1437.5 10.476798
1438 10.164341
1438.5 10.370197
1439 10.254278
1439.5 10.326532
1440 10.230421
1440.5 10.261845
1441 10.404742
1441.5 10.423657
1442 10.415066
1442.5 10.350706
1443 10.425614
1443.5 10.185596
1444 10.350094
1444.5 10.255203
1445 10.440087
1445.5 10.622805
1446 10.566712
1446.5 10.454031
1447 10.213281
1447.5 10.448033
1448 10.12941
1448.5 10.452985
1449 10.129829
1449.5 10.466181
1450 10.527406
1450.5 10.631274
1451 10.553232
1451.5 10.488403
1452 10.573966
1452.5 10.363655
1453 10.599445
1453.5 10.394095
1454 10.488322
1454.5 10.428711
1455 10.537537
1455.5 10.482235
1456 10.357299
1456.5 10.526059
1457 10.46244
1457.5 10.580165
1458 10.335831
1458.5 10.495105
1459 10.29124
1459.5 10.647528
1460 10.53386
1460.5 10.661469
1461 10.565828
1461.5 10.563707
1462 10.550434
1462.5 10.459087
1463 10.676956
1463.5 10.330152
1464 10.676162
1464.5 10.530124
1465 10.594714
1465.5 10.553103
1466 10.621952
1466.5 10.59854
1467 10.474107
1467.5 10.568659
1468 10.392017
1468.5 10.571715
1469 10.460939
1469.5 10.678679
1470 10.552859
1470.5 10.706408
1471 10.634896
1471.5 10.675704
1472 10.768434
1472.5 10.48098
1473 10.83893
1473.5 10.637559
1474 10.771269
1474.5 10.655162
1475 10.797278
1475.5 10.844965
1476 10.865694
1476.5 10.7378
1477 10.58649
1477.5 10.878699
1478 10.669226
1478.5 10.762364
1479 10.559557
1479.5 10.764962
1480 10.748346
1480.5 10.752283
1481 10.755327
1481.5 10.627306
1482 10.833624
1482.5 10.748076
1483 10.684843
1483.5 10.542988
1484 10.859618
1484.5 10.631631
1485 10.833456
1485.5 10.687198
1486 10.744675
1486.5 10.832137
1487 10.821673
1487.5 10.843571
1488 10.760377
1488.5 10.885137
1489 10.81293
1489.5 10.915627
1490 10.698316
1490.5 10.886677
1491 10.930813
1491.5 10.889105
1492 10.942486
1492.5 10.806013
1493 11.034986
1493.5 10.86918
1494 11.09658
1494.5 10.709941
1495 10.959738
1495.5 10.797229
1496 10.960212
1496.5 10.874917
1497 10.88127
1497.5 10.942695
1498 10.833944
1498.5 10.935038
1499 10.785826
1499.5 11.034572
1500 10.826317
1500.5 11.010433
1501 10.956696
1501.5 10.987063
1502 11.053135
1502.5 10.968608
1503 11.07446
1503.5 10.81879
1504 11.062793
1504.5 10.775563
1505 11.070556
1505.5 10.910816
1506 10.970361
1506.5 10.922872
1507 11.015029
1507.5 10.992693
1508 10.93779
1508.5 11.139786
1509 10.880868
1509.5 11.140984
1510 10.972294
1510.5 11.043738
1511 11.012164
1511.5 11.120703
1512 11.070561
1512.5 11.012685
1513 11.19515
1513.5 10.981236
1514 11.225948
1514.5 11.03429
1515 11.29114
1515.5 11.124694
1516 11.326326
1516.5 11.119479
1517 11.050189
1517.5 11.138409
1518 10.960908
1518.5 11.217687
1519 11.055082
1519.5 11.197273
1520 11.026235
1520.5 11.198987
1521 11.132762
1521.5 11.147415
1522 11.165997
1522.5 11.138485
1523 11.27494
1523.5 11.106393
1524 11.274563
1524.5 11.125922
1525 11.342029
1525.5 11.235303
1526 11.289287
1526.5 11.216652
1527 11.134758
1527.5 11.20598
1528 11.168165
1528.5 11.271078
1529 11.043698
1529.5 11.330955
1530 11.204291
1530.5 11.383259
1531 11.184315
1531.5 11.250842
1532 11.230652
1532.5 11.289315
1533 11.435051
1533.5 11.295508
1534 11.525001
1534.5 11.350562
1535 11.30408
1535.5 11.181472
1536 11.350583
1536.5 11.251009
1537 11.33654
1537.5 11.231694
1538 11.146095
1538.5 11.369818
1539 11.273555
1539.5 11.370551
1540 11.193954
1540.5 11.450548
1541 11.271762
1541.5 11.396653
1542 11.366677
1542.5 11.423893
1543 11.460578
1543.5 11.39144
1544 11.477061
1544.5 11.4009
1545 11.615902
1545.5 11.454963
1546 11.617956
1546.5 11.550342
1547 11.577637
1547.5 11.447385
1548 11.488258
1548.5 11.46296
1549 11.242379
1549.5 11.50725
1550 11.228579
1550.5 11.527252
1551 11.398709
1551.5 11.519657
1552 11.470725
1552.5 11.548293
1553 11.518938
1553.5 11.500099
1554 11.538894
1554.5 11.493114
1555 11.643988
1555.5 11.416456
1556 11.590423
1556.5 11.526311
1557 11.630582
1557.5 11.573722
1558 11.549807
1558.5 11.772413
1559 11.568969
1559.5 11.859507
1560 11.594573
1560.5 11.73083
1561 11.435446
1561.5 11.654308
1562 11.585776
1562.5 11.623684
1563 11.531541
1563.5 11.483581
1564 11.649796
1564.5 11.560047
1565 11.684548
1565.5 11.493813
1566 11.738458
1566.5 11.611991
1567 11.707672
1567.5 11.702833
1568 11.727503
1568.5 11.813632
1569 11.650155
1569.5 11.841313
1570 11.581311
1570.5 11.978835
1571 11.797717
1571.5 11.726686
1572 11.650507
1572.5 11.663956
1573 11.722497
1573.5 11.689343
1574 11.762389
1574.5 11.583116
1575 11.849544
1575.5 11.747112
1576 11.7586
1576.5 11.723872
1577 11.821949
1577.5 11.782699
1578 11.761374
1578.5 11.910176
1579 11.804476
1579.5 11.927531
1580 11.830644
1580.5 12.03234
1581 11.807397
1581.5 12.002401
1582 11.950345
1582.5 11.897949
1583 11.784933
1583.5 11.700807
1584 11.933121
1584.5 11.767855
1585 11.857206
1585.5 11.685705
1586 11.938893
1586.5 11.824408
1587 11.953816
1587.5 11.821521
1588 11.895782
1588.5 12.002745
1589 11.921374
1589.5 12.022003
1590 11.863057
1590.5 12.145815
1591 11.967395
1591.5 12.097123
1592 12.010661
1592.5 12.044032
1593 12.169886
1593.5 12.085523
1594 11.985113
1594.5 11.735026
1595 12.017855
1595.5 11.880222
1596 12.060376
1596.5 11.886306
1597 12.04865
1597.5 11.883882
1598 12.073757
1598.5 11.992658
1599 11.980482
1599.5 12.065907
1600 12.047371
1600.5 12.100647
1601 12.004914
1601.5 12.207496
1602 11.962611
1602.5 12.129252
1603 12.165802
1603.5 12.055802
1604 12.277743
1604.5 12.212607
1605 12.33497
1605.5 12.131364
1606 12.324715
1606.5 11.885536
1607 12.229244
1607.5 12.052763
1608 12.161826
1608.5 12.116138
1609 12.179436
1609.5 12.099689
1610 12.075217
1610.5 12.301096
1611 12.07095
1611.5 12.308815
1612 12.21126
1612.5 12.253769
1613 12.270425
1613.5 12.285101
1614 12.45646
1614.5 12.248087
1615 12.372549
1615.5 12.060727
1616 12.292279
1616.5 12.052976
1617 12.315427
1617.5 12.171318
1618 12.317478
1618.5 12.231046
1619 12.258046
1619.5 12.273572
1620 12.087329
1620.5 12.434821
1621 12.261776
1621.5 12.447222
1622 12.224792
1622.5 12.387443
1623 12.37733
1623.5 12.417837
1624 12.543194
1624.5 12.450008
1625 12.654169
1625.5 12.351095
1626 12.448241
1626.5 12.218727
1627 12.487064
1627.5 12.374447
1628 12.387853
1628.5 12.383173
1629 12.303784
1629.5 12.400986
1630 12.321275
1630.5 12.453524
1631 12.223405
1631.5 12.567113
1632 12.409735
1632.5 12.515888
1633 12.488142
1633.5 12.502383
1634 12.559904
1634.5 12.51701
1635 12.719138
1635.5 12.547018
1636 12.715732
1636.5 12.485185
1637 12.539947
1637.5 12.432925
1638 12.539606
1638.5 12.492485
1639 12.527034
1639.5 12.503187
1640 12.331823
1640.5 12.590967
1641 12.476522
1641.5 12.601972
1642 12.418879
1642.5 12.657794
1643 12.536192
1643.5 12.675615
1644 12.632674
1644.5 12.602295
1645 12.672547
1645.5 12.623776
1646 12.706508
1646.5 12.568215
1647 12.820943
1647.5 12.667614
1648 12.806487
1648.5 12.818238
1649 12.67997
1649.5 12.707439
1650 12.596667
1650.5 12.735593
1651 12.529474
1651.5 12.780897
1652 12.49169
1652.5 12.762557
1653 12.590572
1653.5 12.675138
1654 12.707618
1654.5 12.761717
1655 12.759703
1655.5 12.695833
1656 12.903087
1656.5 12.75937
1657 12.984872
1657.5 12.907913
1658 12.898943
1658.5 12.777196
1659 12.776542
1659.5 12.747228
1660 12.654696
1660.5 12.88275
1661 12.66119
1661.5 12.868227
1662 12.529506
1662.5 12.834197
1663 12.668841
1663.5 12.925808
1664 12.798658
1664.5 12.769741
1665 12.896386
1665.5 12.77644
1666 12.98947
1666.5 12.888893
1667 13.017653
1667.5 12.727608
1668 12.840426
1668.5 12.764142
1669 12.762816
1669.5 12.813285
1670 12.637195
1670.5 12.920937
1671 12.959282
1671.5 13.010167
1672 12.822266
1672.5 13.034126
1673 12.877885
1673.5 12.970643
1674 12.813644
1674.5 13.012697
1675 12.853938
1675.5 13.029641
1676 13.01323
1676.5 12.978451
1677 13.100693
1677.5 13.005513
1678 13.101035
1678.5 12.991031
1679 13.090855
1679.5 12.950017
1680 13.085937
1680.5 12.986964
1681 13.04749
1681.5 13.152827
1682 13.029246
1682.5 13.199775
1683 13.003498
1683.5 13.287388
1684 12.799169
1684.5 13.129219
1685 12.987907
1685.5 13.074724
1686 12.992679
1686.5 13.038598
1687 13.087268
1687.5 13.097559
1688 13.212764
1688.5 13.057555
1689 13.432513
1689.5 13.253395
1690 13.221723
1690.5 13.092257
1691 13.097849
1691.5 13.080296
1692 12.990874
1692.5 13.260025
1693 12.987624
1693.5 13.218243
1694 13.022047
1694.5 13.267675
1695 13.112195
1695.5 13.268442
1696 13.262595
1696.5 13.337208
1697 13.287708
1697.5 13.04373
1698 13.285694
1698.5 13.141897
1699 13.34241
1699.5 13.147236
1700 13.289079
1700.5 13.183784
1701 13.206583
1701.5 13.226032
1702 13.228048
1702.5 13.449618
1703 13.206108
1703.5 13.382955
1704 13.207084
1704.5 13.500541
1705 13.360447
1705.5 13.37944
1706 13.223116
1706.5 13.173561
1707 13.343756
1707.5 13.194042
1708 13.417348
1708.5 13.178106
1709 13.398127
1709.5 13.32514
1710 13.476898
1710.5 13.381551
1711 13.456617
1711.5 13.431548
1712 13.360679
1712.5 13.54496
1713 13.412991
1713.5 13.69268
1714 13.478108
1714.5 13.478063
1715 13.351153
1715.5 13.431183
1716 13.432026
1716.5 13.46361
1717 13.379413
1717.5 13.322271
1718 13.585295
1718.5 13.385598
1719 13.538325
1719.5 13.37188
1720 13.521519
1720.5 13.43469
1721 13.53488
1721.5 13.474961
1722 13.547602
1722.5 13.616283
1723 13.518602
1723.5 13.614133
1724 13.545769
1724.5 13.728225
1725 13.573362
1725.5 13.682738
1726 13.635337
1726.5 13.565937
1727 13.695717
1727.5 13.680792
1728 13.722184
1728.5 13.540535
1729 13.814151
1729.5 13.562691
1730 13.755232
1730.5 13.716255
1731 13.899182
1731.5 13.76776
1732 13.666569
1732.5 13.775204
1733 13.647008
1733.5 13.772924
1734 13.604997
1734.5 13.766263
1735 13.65239
1735.5 13.812779
1736 13.741592
1736.5 13.770385
1737 13.801679
1737.5 13.641322
1738 13.869154
1738.5 13.601308
1739 13.887061
1739.5 13.579744
1740 13.844571
1740.5 13.635293
1741 13.833719
1741.5 13.831767
1742 13.82284
1742.5 13.790676
1743 13.705955
1743.5 14.009506
1744 13.810472
1744.5 13.917214
1745 13.74338
1745.5 14.024141
1746 13.875541
1746.5 13.841805
1747 13.91115
1747.5 13.797681
1748 14.01584
1748.5 13.768232
1749 13.960712
1749.5 13.734762
1750 14.001499
1750.5 13.806836
1751 13.905191
1751.5 13.840416
1752 13.7991
1752.5 13.911928
1753 13.864629
1753.5 13.944997
1754 13.826847
1754.5 14.054118
1755 13.99617
1755.5 14.119157
1756 13.90074
1756.5 14.115648
1757 14.033665
1757.5 14.055158
1758 14.172459
1758.5 14.022896
1759 14.298949
1759.5 14.116783
1760 14.233525
1760.5 14.117457
1761 14.287636
1761.5 13.986219
1762 14.110884
1762.5 13.998343
1763 13.859209
1763.5 14.105035
1764 14.073716
1764.5 14.107665
1765 13.971579
1765.5 14.244798
1766 14.073443
1766.5 14.212561
1767 14.135213
1767.5 14.135422
1768 14.246689
1768.5 14.181116
1769 14.299643
1769.5 14.105617
1770 14.346495
1770.5 14.277831
1771 14.354277
1771.5 14.137416
1772 14.210238
1772.5 14.19351
1773 14.213976
1773.5 14.166203
1774 14.006257
1774.5 14.348404
1775 14.004834
1775.5 14.239389
1776 14.034295
1776.5 14.301993
1777 14.14917
1777.5 14.379176
1778 14.318138
1778.5 14.240567
1779 14.425674
1779.5 14.316116
1780 14.508832
1780.5 14.295627
1781 14.393769
1781.5 14.325038
1782 14.412177
1782.5 14.363723
1783 14.315671
1783.5 14.482343
1784 14.382638
1784.5 14.535213
1785 14.303273
1785.5 14.428768
1786 14.31471
1786.5 14.535655
1787 14.460318
1787.5 14.50008
1788 14.443514
1788.5 14.492215
1789 14.632908
1789.5 14.49075
1790 14.607608
1790.5 14.453781
1791 14.652218
1791.5 14.529943
1792 14.604451
1792.5 14.677103
1793 14.680645
1793.5 14.648664
1794 14.501712
1794.5 14.716107
1795 14.433368
1795.5 14.675204
1796 14.46794
1796.5 14.620703
1797 14.469907
1797.5 14.459561
1798 14.547102
1798.5 14.476269
1799 14.490977
1799.5 14.37356
1800 14.630866
1800.5 14.587532
1801 14.845257
1801.5 14.641181
1802 14.84945
1802.5 14.771268
1803 14.734535
1803.5 14.72846
1804 14.540838
1804.5 14.639132
1805 14.565256
1805.5 14.833435
1806 14.686763
1806.5 14.942014
1807 14.759788
1807.5 14.773703
1808 14.73044
1808.5 14.544359
1809 14.783724
1809.5 14.556362
1810 14.683583
1810.5 14.600912
1811 14.899847
1811.5 14.815708
1812 14.986917
1812.5 14.974084
1813 14.897482
1813.5 14.895119
1814 14.641137
1814.5 14.776856
1815 14.719401
1815.5 15.103476
1816 15.007977
1816.5 14.970469
1817 14.744213
1817.5 14.808568
1818 14.843406
1818.5 14.755683
1819 14.593934
1819.5 14.451736
1820 14.842571
1820.5 14.915209
1821 15.017135
1821.5 14.909866
1822 15.204829
1822.5 15.150492
1823 15.157793
1823.5 14.964375
1824 14.863274
1824.5 14.915913
1825 14.747116
1825.5 14.950493
1826 15.137647
1826.5 15.283769
1827 15.073894
1827.5 15.009868
1828 14.879861
1828.5 14.800213
1829 14.949165
1829.5 14.935014
1830 15.023148
1830.5 14.850369
1831 15.316503
1831.5 15.149061
1832 15.330112
1832.5 15.09645
1833 15.079813
1833.5 15.0621
1834 15.020135
1834.5 14.911444
1835 14.883424
1835.5 14.992009
1836 15.153563
1836.5 15.363105
1837 15.237886
1837.5 15.386547
1838 15.229797
1838.5 15.19258
1839 15.068918
1839.5 14.893629
1840 15.06609
1840.5 14.921945
1841 15.354553
1841.5 15.109871
1842 15.497464
1842.5 15.432625
1843 15.642813
1843.5 15.272357
1844 15.20588
1844.5 15.257053
1845 15.022981
1845.5 15.175687
1846 14.990892
1846.5 14.891113
1847 15.127417
1847.5 15.446998
1848 15.556742
1848.5 15.556479
1849 15.648878
1849.5 15.484226
1850 15.437309
1850.5 15.148652
1851 15.322958
1851.5 15.020657
1852 15.290812
1852.5 15.036218
1853 15.440376
1853.5 15.423937
1854 15.580307
1854.5 15.466245
1855 15.361877
1855.5 15.248707
1856 15.179425
1856.5 15.724467
1857 15.538767
1857.5 15.513296
1858 15.341516
1858.5 15.251012
1859 15.342332
1859.5 15.37936
1860 15.793104
1860.5 15.607241
1861 15.878588
1861.5 15.392958
1862 15.509103
1862.5 15.223229
1863 15.478355
1863.5 15.560392
1864 15.751211
1864.5 15.848589
1865 15.613386
1865.5 15.639567
1866 15.361066
1866.5 15.461382
1867 15.419532
1867.5 15.683232
1868 15.626161
1868.5 15.500446
1869 15.548521
1869.5 15.53409
1870 15.628718
1870.5 15.505539
1871 15.662307
1871.5 15.390515
1872 15.681536
1872.5 15.582986
1873 15.739146
1873.5 15.646987
1874 15.704349
1874.5 15.748028
1875 15.518574
1875.5 15.656726
1876 15.496267
1876.5 15.898798
1877 15.831929
1877.5 16.073382
1878 15.875408
1878.5 15.947317
1879 15.76263
1879.5 15.730284
1880 15.749246
1880.5 15.719095
1881 15.862232
1881.5 15.685906
1882 15.769261
1882.5 15.573019
1883 15.644091
1883.5 15.742038
1884 15.923487
1884.5 15.921521
1885 15.848024
1885.5 15.9795
1886 15.888254
1886.5 16.069575
1887 15.754823
1887.5 15.867521
1888 15.652072
1888.5 15.745711
1889 15.605135
1889.5 15.772589
1890 16.015573
1890.5 15.970764
1891 16.114146
1891.5 15.989465
1892 16.080038
1892.5 15.9316
1893 16.08372
1893.5 16.032903
1894 16.167682
1894.5 16.116631
1895 16.01316
1895.5 16.009286
1896 15.829922
1896.5 15.99561
1897 15.839314
1897.5 15.923704
1898 15.624057
1898.5 15.97428
1899 16.007344
1899.5 16.240178
1900 16.196394
1900.5 16.19892
1901 16.313693
1901.5 16.057004
1902 16.123028
1902.5 15.980926
1903 16.11923
1903.5 15.978184
1904 15.956959
1904.5 15.749088
1905 15.912908
1905.5 16.234125
1906 16.21853
1906.5 16.455472
1907 16.266906
1907.5 16.405329
1908 16.163611
1908.5 16.25957
1909 16.097175
1909.5 16.195582
1910 16.172865
1910.5 16.145156
1911 16.073796
1911.5 16.013396
1912 16.110486
1912.5 16.084036
1913 16.466013
1913.5 16.202432
1914 16.390672
1914.5 16.349868
1915 16.399869
1915.5 16.439757
1916 16.389668
1916.5 16.544755
1917 16.227944
1917.5 16.282062
1918 16.054274
1918.5 16.153559
1919 16.008905
1919.5 16.272388
1920 16.309577
1920.5 16.532703
1921 16.5701
1921.5 16.423871
1922 16.465051
1922.5 16.248196
1923 16.486235
1923.5 16.317643
1924 16.367321
1924.5 16.296019
1925 16.419888
1925.5 16.302273
1926 16.244657
1926.5 16.347188
1927 16.259879
1927.5 16.531263
1928 16.332595
1928.5 16.570643
1929 16.251913
1929.5 16.546944
1930 16.434385
1930.5 16.549742
1931 16.541305
1931.5 16.51586
1932 16.595703
1932.5 16.480921
1933 16.651073
1933.5 16.4533
1934 16.683725
1934.5 16.465482
1935 16.570812
1935.5 16.565901
1936 16.596739
1936.5 16.621417
1937 16.533244
1937.5 16.690959
1938 16.446415
1938.5 16.649403
1939 16.449009
1939.5 16.746378
1940 16.502796
1940.5 16.713531
1941 16.566075
1941.5 16.658482
1942 16.679721
1942.5 16.629776
1943 16.730459
1943.5 16.468494
1944 16.757469
1944.5 16.639328
1945 16.762845
1945.5 16.624208
1946 16.722751
1946.5 16.691576
1947 16.651577
1947.5 16.845445
1948 16.605894
1948.5 16.826335
1949 16.581269
1949.5 16.823941
1950 16.597536
1950.5 16.806251
1951 16.667923
1951.5 16.726404
1952 16.801326
1952.5 16.654709
1953 16.847664
1953.5 16.731049
1954 16.78924
1954.5 16.711088
1955 16.930604
1955.5 16.754968
1956 16.79583
1956.5 16.770022
1957 16.921803
1957.5 16.892694
1958 16.734822
1958.5 16.943091
1959 16.761696
1959.5 16.967486
1960 16.777726
1960.5 16.842057
1961 16.660497
1961.5 16.866834
1962 16.842027
1962.5 16.898727
1963 16.860488
1963.5 16.680747
1964 17.009813
1964.5 16.848511
1965 17.015518
1965.5 16.821867
1966 17.0687
1966.5 16.927814
1967 17.016424
1967.5 16.983251
1968 16.965222
1968.5 17.109904
1969 16.949157
1969.5 17.191094
1970 16.943553
1970.5 17.072605
1971 16.888081
1971.5 17.13247
1972 16.998206
1972.5 17.016339
1973 17.080691
1973.5 17.034335
1974 17.100149
1974.5 16.796924
1975 17.128234
1975.5 16.977419
1976 17.159161
1976.5 16.968656
1977 17.15593
1977.5 17.106768
1978 17.167681
1978.5 17.149831
1979 17.122515
1979.5 17.252386
1980 17.105977
1980.5 17.280734
1981 17.083067
1981.5 17.206986
1982 17.180339
1982.5 17.173102
1983 17.130546
1983.5 17.109157
1984 17.259979
1984.5 17.163728
1985 17.276141
1985.5 17.051737
1986 17.306615
1986.5 17.179272
1987 17.27315
1987.5 17.240331
1988 17.318209
1988.5 17.306378
1989 17.25993
1989.5 17.349458
1990 17.276619
1990.5 17.474642
1991 17.308451
1991.5 17.473437
1992 17.309189
1992.5 17.353158
1993 17.431019
1993.5 17.392614
1994 17.458616
1994.5 17.253768
1995 17.488827
1995.5 17.266342
1996 17.491484
1996.5 17.217351
1997 17.567743
1997.5 17.355616
1998 17.472334
1998.5 17.4619
1999 17.480779
1999.5 17.483015
2000 17.446625
2000.5 17.528941
2001 17.403464
2001.5 17.550869
2002 17.426179
2002.5 17.549704
2003 17.45501
2003.5 17.48455
2004 17.543426
2004.5 17.517471
2005 17.588434
2005.5 17.381981
2006 17.704166
2006.5 17.386182
2007 17.688373
2007.5 17.499477
2008 17.572004
2008.5 17.488867
2009 17.653127
2009.5 17.581543
2010 17.561479
2010.5 17.702056
2011 17.504631
2011.5 17.592846
2012 17.510407
2012.5 17.660919
2013 17.58384
2013.5 17.640661
2014 17.609493
2014.5 17.566808
2015 17.777491
2015.5 17.582893
2016 17.707074
2016.5 17.430176
2017 17.818902
2017.5 17.585345
2018 17.874259
2018.5 17.789511
2019 17.786387
2019.5 17.701316
2020 17.567562
2020.5 17.801982
2021 17.613494
2021.5 17.856382
2022 17.638919
2022.5 17.825083
2023 17.751272
2023.5 17.776433
2024 17.818724
2024.5 17.803995
2025 17.969191
2025.5 17.807198
2026 17.981093
2026.5 17.815982
2027 17.921367
2027.5 17.599536
2028 17.8808
2028.5 17.674367
2029 17.906338
2029.5 17.879714
2030 17.871238
2030.5 17.957546
2031 17.849095
2031.5 17.958522
2032 17.801505
2032.5 18.056241
2033 17.838973
2033.5 18.016918
2034 17.834495
2034.5 17.909835
2035 18.033254
2035.5 17.96295
2036 18.155946
2036.5 17.920662
2037 18.17271
2037.5 17.80882
2038 18.026689
2038.5 17.901608
2039 18.079443
2039.5 18.02817
2040 18.041101
2040.5 18.06251
2041 17.898124
2041.5 18.069866
2042 17.866053
2042.5 18.200308
2043 18.119389
2043.5 18.157569
2044 18.039924
2044.5 18.139444
2045 18.081796
2045.5 18.040627
2046 18.236288
2046.5 18.00054
2047 18.222031
2047.5 18.034422
2048 18.272758
2048.5 17.999503
2049 18.192558
2049.5 18.084556
2050 18.19724
2050.5 18.241388
2051 18.071736
2051.5 18.240595
2052 18.109758
2052.5 18.213588
2053 18.076396
2053.5 18.405013
2054 18.198623
2054.5 18.320563
2055 18.361035
2055.5 18.402533
2056 18.485224
2056.5 18.218586
2057 18.37357
2057.5 18.180527
2058 18.390436
2058.5 18.318175
2059 18.401569
2059.5 18.27158
2060 18.289526
2060.5 18.347764
2061 18.305095
2061.5 18.336426
2062 18.242846
2062.5 18.506506
2063 18.407854
2063.5 18.514724
2064 18.2436
2064.5 18.386756
2065 18.362713
2065.5 18.348494
2066 18.419415
2066.5 18.417621
2067 18.583949
2067.5 18.480937
2068 18.491405
2068.5 18.323201
2069 18.552576
2069.5 18.475448
2070 18.554884
2070.5 18.560329
2071 18.433124
2071.5 18.553376
2072 18.436046
2072.5 18.505906
2073 18.254243
2073.5 18.52942
2074 18.435957
2074.5 18.579093
2075 18.55884
2075.5 18.656817
2076 18.667102
2076.5 18.566546
2077 18.588091
2077.5 18.474858
2078 18.683647
2078.5 18.581051
2079 18.741179
2079.5 18.617746
2080 18.604118
2080.5 18.709934
2081 18.679711
2081.5 18.645874
2082 18.498091
2082.5 18.746774
2083 18.549331
2083.5 18.80243
2084 18.574347
2084.5 18.838643
2085 18.690594
2085.5 18.800077
2086 18.70338
2086.5 18.807015
2087 18.770935
2087.5 18.811306
2088 18.899862
2088.5 18.78105
2089 18.843821
2089.5 18.752238
2090 18.927588
2090.5 18.784568
2091 18.754672
2091.5 18.907151
2092 18.728712
2092.5 18.857375
2093 18.706799
2093.5 18.967067
2094 18.694882
2094.5 18.98903
2095 18.807481
2095.5 18.925512
2096 18.823306
2096.5 18.955949
2097 18.974887
2097.5 18.972756
2098 18.943559
2098.5 18.827425
2099 19.016778
2099.5 18.895148
2100 19.08135
2100.5 18.97905
2101 19.097294
2101.5 18.971471
2102 18.929608
2102.5 19.079386
2103 18.945791
2103.5 19.159712
2104 18.804188
2104.5 19.159327
2105 18.864194
2105.5 19.118263
2106 18.945283
2106.5 19.049245
2107 19.015022
2107.5 19.063285
2108 19.145565
2108.5 19.005075
2109 19.12646
2109.5 18.962286
2110 19.293445
2110.5 19.183801
2111 19.185387
2111.5 19.110897
2112 19.120024
2112.5 19.262038
2113 19.066581
2113.5 19.289273
2114 19.04624
2114.5 19.31854
2115 19.172272
2115.5 19.319312
2116 19.082649
2116.5 19.14643
2117 19.164258
2117.5 19.138755
2118 19.267897
2118.5 19.050568
2119 19.372551
2119.5 19.25085
2120 19.4795
2120.5 19.209088
2121 19.39449
2121.5 19.260037
2122 19.294789
2122.5 19.350614
2123 19.182526
2123.5 19.446404
2124 19.303896
2124.5 19.520545
2125 19.323812
2125.5 19.511738
2126 19.370386
2126.5 19.387721
2127 19.324818
2127.5 19.216987
2128 19.437811
2128.5 19.373672
2129 19.493778
2129.5 19.241157
2130 19.52429
2130.5 19.428636
2131 19.630967
2131.5 19.394162
2132 19.481549
2132.5 19.422774
2133 19.412476
2133.5 19.594291
2134 19.488551
2134.5 19.658683
2135 19.532844
2135.5 19.663501
2136 19.415575
2136.5 19.518724
2137 19.471176
2137.5 19.481987
2138 19.557498
2138.5 19.43894
2139 19.638668
2139.5 19.539928
2140 19.635904
2140.5 19.485484
2141 19.757783
2141.5 19.547157
2142 19.572207
2142.5 19.58009
2143 19.567677
2143.5 19.688146
2144 19.590843
2144.5 19.719569
2145 19.586022
2145.5 19.843
2146 19.623414
2146.5 19.803238
2147 19.708186
2147.5 19.702142
2148 19.778943
2148.5 19.731297
2149 19.73906
2149.5 19.531561
2150 19.846329
2150.5 19.587991
2151 19.89895
2151.5 19.687285
2152 19.862823
2152.5 19.788082
2153 19.925275
2153.5 19.888791
2154 19.745435
2154.5 19.8728
2155 19.664466
2155.5 19.859177
2156 19.765067
2156.5 19.963907
2157 19.861715
2157.5 19.964792
2158 19.906896
2158.5 19.807582
2159 19.929293
2159.5 19.797115
2160 20.005283
2160.5 19.710825
2161 19.972791
2161.5 19.741198
2162 20.054123
2162.5 19.903737
2163 20.000461
2163.5 19.957855
2164 19.833678
2164.5 20.168798
2165 20.044054
2165.5 20.197192
2166 19.875301
2166.5 20.112503
2167 19.979669
2167.5 20.075615
2168 20.018511
2168.5 20.10771
2169 20.159966
2169.5 19.99166
2170 20.25827
2170.5 19.993189
2171 20.320837
2171.5 20.005624
2172 20.099068
2172.5 20.025747
2173 20.071536
2173.5 20.191897
2174 20.271455
2174.5 20.238166
2175 19.875462
2175.5 20.217049
2176 20.170461
2176.5 20.245966
2177 20.132226
2177.5 20.302992
2178 20.224525
2178.5 20.317195
2179 20.420998
2179.5 20.257674
2180 20.375088
2180.5 20.195237
2181 20.304629
2181.5 20.246081
2182 20.386477
2182.5 20.28254
2183 20.407073
2183.5 20.292206
2184 20.315008
2184.5 20.440334
2185 20.303813
2185.5 20.353931
2186 20.207639
2186.5 20.488213
2187 20.394938
2187.5 20.49574
2188 20.297769
2188.5 20.455211
2189 20.39838
2189.5 20.441119
2190 20.498492
2190.5 20.424815
2191 20.59298
2191.5 20.50304
2192 20.676027
2192.5 20.450096
2193 20.478918
2193.5 20.483173
2194 20.466486
2194.5 20.549814
2195 20.460856
2195.5 20.562363
2196 20.451413
2196.5 20.695807
2197 20.434712
2197.5 20.782357
2198 20.474699
2198.5 20.623644
2199 20.573229
2199.5 20.657067
2200 20.551285
2200.5 20.628907
2201 20.704997
2201.5 20.604563
2202 20.760226
2202.5 20.57514
2203 20.727091
2203.5 20.633458
2204 20.724823
2204.5 20.739082
2205 20.745549
2205.5 20.893726
2206 20.624776
2206.5 20.819986
2207 20.565625
2207.5 20.802233
2208 20.626867
2208.5 20.791884
2209 20.715612
2209.5 20.831533
2210 20.858625
2210.5 20.809139
2211 20.953535
2211.5 20.839515
2212 20.987251
2212.5 20.77551
2213 20.91973
2213.5 20.771541
2214 20.860755
2214.5 20.852664
2215 20.770796
2215.5 21.003838
2216 20.83527
2216.5 20.977576
2217 20.808467
2217.5 21.074252
2218 20.808324
2218.5 21.072897
2219 20.978473
2219.5 20.932725
2220 20.907265
2220.5 20.807853
2221 21.008044
2221.5 20.886993
2222 21.095875
2222.5 20.844376
2223 21.151197
2223.5 21.009758
2224 21.108967
2224.5 21.134864
2225 21.194059
2225.5 21.314545
2226 20.922565
2226.5 21.074061
2227 20.940283
2227.5 21.19254
2228 21.015297
2228.5 21.065877
2229 20.99811
2229.5 21.093896
2230 21.20191
2230.5 21.087454
2231 21.242219
2231.5 20.976324
2232 21.315607
2232.5 21.230882
2233 21.311456
2233.5 21.0619
2234 21.199158
2234.5 21.182716
2235 21.207128
2235.5 21.294782
2236 21.123342
2236.5 21.349843
2237 21.176496
2237.5 21.356648
2238 21.155481
2238.5 21.383481
2239 21.325389
2239.5 21.434282
2240 21.304384
2240.5 21.148905
2241 21.337354
2241.5 21.275288
2242 21.336678
2242.5 21.127315
2243 21.442406
2243.5 21.304488
2244 21.435988
2244.5 21.369419
2245 21.429253
2245.5 21.490073
2246 21.429315
2246.5 21.470754
2247 21.350572
2247.5 21.452042
2248 21.319351
2248.5 21.531105
2249 21.326965
2249.5 21.482903
2250 21.510947
2250.5 21.547499
2251 21.549988
2251.5 21.46454
2252 21.482635
2252.5 21.300282
2253 21.518767
2253.5 21.328638
2254 21.462031
2254.5 21.408448
2255 21.579698
2255.5 21.477623
2256 21.505985
2256.5 21.611027
2257 21.541451
2257.5 21.710983
2258 21.575156
2258.5 21.572821
2259 21.397351
2259.5 21.575364
2260 21.505198
2260.5 21.50225
2261 21.612421
2261.5 21.556139
2262 21.66559
2262.5 21.506377
2263 21.786597
2263.5 21.504419
2264 21.665488
2264.5 21.445057
2265 21.627535
2265.5 21.493049
2266 21.626349
2266.5 21.710008
2267 21.654446
2267.5 21.705498
2268 21.564315
2268.5 21.80841
2269 21.698521
2269.5 21.762282
2270 21.621768
2270.5 21.65589
2271 21.717715
2271.5 21.592487
2272 21.731889
2272.5 21.523541
2273 21.7941
2273.5 21.57183
2274 21.745951
2274.5 21.565334
2275 21.77331
2275.5 21.747616
2276 21.785405
2276.5 21.892408
2277 21.697314
2277.5 22.014748
2278 21.724929
2278.5 21.881269
2279 21.649897
2279.5 21.825182
2280 21.82572
2280.5 21.858333
2281 21.871039
2281.5 21.886154
2282 21.991542
2282.5 21.83803
2283 22.108597
2283.5 21.808301
2284 22.105084
2284.5 21.945325
2285 21.925515
2285.5 21.785542
2286 21.807274
2286.5 21.867251
2287 21.867485
2287.5 21.95276
2288 21.712688
2288.5 22.117642
2289 21.949288
2289.5 21.969837
2290 21.893859
2290.5 22.08339
2291 22.095512
2291.5 22.028439
2292 22.157268
2292.5 21.842234
2293 22.068959
2293.5 21.907361
2294 22.115839
2294.5 21.939231
2295 22.119349
2295.5 22.00996
2296 22.047797
2296.5 22.037546
2297 21.911794
2297.5 22.263961
2298 22.14348
2298.5 22.287802
2299 22.046219
2299.5 22.280933
2300 21.973684
2300.5 22.165549
2301 22.075382
2301.5 22.241543
2302 22.234409
2302.5 22.138333
2303 22.215961
2303.5 22.143084
2304 22.277096
2304.5 22.11833
2305 22.295304
2305.5 22.171406
2306 22.301415
2306.5 22.354238
2307 22.31029
2307.5 22.150174
2308 22.087884
2308.5 22.426271
2309 22.170579
2309.5 22.371675
2310 22.23063
2310.5 22.489683
2311 22.169626
2311.5 22.385912
2312 22.328314
2312.5 22.28619
2313 22.425395
2313.5 22.358036
2314 22.526133
2314.5 22.35423
2315 22.381504
2315.5 22.390339
2316 22.596011
2316.5 22.50196
2317 22.490117
2317.5 22.699605
2318 22.3892
2318.5 22.539485
2319 22.257149
2319.5 22.542125
2320 22.292505
2320.5 22.577609
2321 22.435011
2321.5 22.43778
2322 22.529218
2322.5 22.449672
2323 22.641948
2323.5 22.544986
2324 22.710891
2324.5 22.473061
2325 22.66729
2325.5 22.712012
2326 22.714233
2326.5 22.589134
2327 22.746187
2327.5 22.757728
2328 22.65636
2328.5 22.778732
2329 22.545899
2329.5 22.848658
2330 22.508205
2330.5 22.705685
2331 22.611405
2331.5 22.780661
2332 22.742686
2332.5 22.740699
2333 22.756669
2333.5 22.542216
2334 22.846605
2334.5 22.783165
2335 22.882672
2335.5 22.673479
2336 22.937495
2336.5 22.871944
2337 22.828478
2337.5 22.855645
2338 22.829796
2338.5 23.07011
2339 22.926401
2339.5 23.097053
2340 22.828126
2340.5 22.923501
2341 22.804809
2341.5 22.909316
2342 22.915693
2342.5 22.839582
2343 22.946921
2343.5 22.8853
2344 22.999984
2344.5 22.80007
2345 23.100083
2345.5 22.948369
2346 23.077129
2346.5 23.058733
2347 23.104331
2347.5 23.153599
2348 23.156729
2348.5 23.116598
2349 22.925696
2349.5 23.190889
2350 22.988151
2350.5 23.149654
2351 22.985522
2351.5 23.076333
2352 23.029846
2352.5 23.083505
2353 23.186104
2353.5 22.992492
2354 23.254195
2354.5 23.053433
2355 23.304769
2355.5 23.107283
2356 23.400001
2356.5 23.176806
2357 23.216826
2357.5 23.128615
2358 23.17227
2358.5 23.251858
2359 23.139547
2359.5 23.327492
2360 23.176764
2360.5 23.36982
2361 23.209685
2361.5 23.412424
2362 23.347498
2362.5 23.369606
2363 23.399101
2363.5 23.312634
2364 23.441839
2364.5 23.179968
2365 23.426065
2365.5 23.172793
2366 23.446423
2366.5 23.242308
2367 23.337331
2367.5 23.318046
2368 23.395048
2368.5 23.407057
2369 23.404351
2369.5 23.575827
2370 23.301646
2370.5 23.561785
2371 23.367663
2371.5 23.521875
2372 23.385356
2372.5 23.446621
2373 23.471569
2373.5 23.383962
2374 23.591644
2374.5 23.436426
2375 23.693228
2375.5 23.425315
2376 23.710038
2376.5 23.457469
2377 23.645549
2377.5 23.529924
2378 23.44729
2378.5 23.589174
2379 23.426504
2379.5 23.644477
2380 23.565519
2380.5 23.688662
2381 23.559912
2381.5 23.802474
2382 23.640291
2382.5 23.602466
2383 23.800148
2383.5 23.692322
2384 23.818874
2384.5 23.532328
2385 23.710109
2385.5 23.517902
2386 23.708415
2386.5 23.611401
2387 23.774564
2387.5 23.667566
2388 23.606117
2388.5 23.852196
2389 23.677723
2389.5 23.851231
2390 23.711662
2390.5 24.02737
2391 23.716235
2391.5 23.894705
2392 23.713049
2392.5 23.874408
2393 23.847699
2393.5 23.784728
2394 23.944587
2394.5 23.783705
2395 24.052013
2395.5 23.896256
2396 23.925416
2396.5 23.908544
2397 24.019159
2397.5 24.004613
2398 24.018595
2398.5 23.874234
2399 23.734505
2399.5 23.964232
2400 23.903212
2400.5 24.062835
2401 23.825254
2401.5 24.107604
2402 23.925316
2402.5 24.030788
2403 24.052188
2403.5 24.109049
2404 24.21246
2404.5 24.158143
2405 24.131821
2405.5 23.93399
2406 24.090183
2406.5 23.992737
2407 24.148433
2407.5 23.963457
2408 24.032831
2408.5 24.138598
2409 24.082211
2409.5 24.171592
2410 23.970398
2410.5 24.340273
2411 24.156435
2411.5 24.317974
2412 24.126007
2412.5 24.185115
2413 24.094275
2413.5 24.237214
2414 24.205787
2414.5 24.155842
2415 24.295679
2415.5 24.1688
2416 24.538019
2416.5 24.299921
2417 24.515563
2417.5 24.414854
2418 24.361728
2418.5 24.269442
2419 24.202845
2419.5 24.326968
2420 24.217139
2420.5 24.40446
2421 24.146169
2421.5 24.387954
2422 24.206421
2422.5 24.429476
2423 24.24417
2423.5 24.45662
2424 24.406691
2424.5 24.393407
2425 24.564564
2425.5 24.4958
2426 24.540433
2426.5 24.292476
2427 24.512281
2427.5 24.415858
2428 24.478555
2428.5 24.514483
2429 24.4587
2429.5 24.528387
2430 24.406865
2430.5 24.662018
2431 24.44623
2431.5 24.666302
2432 24.387227
2432.5 24.587056
2433 24.475494
2433.5 24.593221
2434 24.668504
2434.5 24.516447
2435 24.621426
2435.5 24.496165
2436 24.738856
2436.5 24.605983
2437 24.728142
2437.5 24.527197
2438 24.722974
2438.5 24.589694
2439 24.617201
2439.5 24.682592
2440 24.584153
2440.5 24.840102
2441 24.647841
2441.5 24.860848
2442 24.602298
2442.5 24.758072
2443 24.691808
2443.5 24.770564
2444 24.730493
2444.5 24.638429
2445 24.861811
2445.5 24.708872
2446 24.791744
2446.5 24.556054
2447 24.877213
2447.5 24.705592
2448 24.928118
2448.5 24.831735
2449 24.893136
2449.5 24.814898
2450 24.759282
2450.5 24.885033
2451 24.809152
2451.5 24.870951
2452 24.832204
2452.5 24.907784
2453 24.812573
2453.5 24.894525
2454 24.952294
2454.5 24.935365
2455 24.947771
2455.5 24.775158
2456 24.954048
2456.5 24.721056
2457 24.982205
2457.5 24.72323
2458 24.999459
2458.5 24.850574
2459 25.149956
2459.5 25.097275
2460 25.046766
2460.5 25.109813
2461 24.837457
2461.5 25.081551
2462 24.938829
2462.5 25.11467
2463 24.981761
2463.5 25.138375
2464 25.052646
2464.5 25.009158
2465 25.113371
2465.5 25.09523
2466 25.194737
2466.5 24.978381
2467 25.221983
2467.5 24.912477
2468 25.274205
2468.5 25.107321
2469 25.039622
2469.5 25.056854
2470 25.119749
2470.5 25.23801
2471 25.175583
2471.5 25.293809
2472 25.155586
2472.5 25.434324
2473 25.253734
2473.5 25.432432
2474 25.346348
2474.5 25.357547
2475 25.358391
2475.5 25.2094
2476 25.419492
2476.5 25.22898
2477 25.529945
2477.5 25.226095
2478 25.363895
2478.5 25.218803
2479 25.412676
2479.5 25.332668
2480 25.391927
2480.5 25.416255
2481 25.168988
2481.5 25.541136
2482 25.391993
2482.5 25.576296
2483 25.354996
2483.5 25.52526
2484 25.382039
2484.5 25.363684
2485 25.4208
2485.5 25.436398
2486 25.625241
2486.5 25.331247
2487 25.562409
2487.5 25.415191
2488 25.59211
2488.5 25.372487
2489 25.499403
2489.5 25.393355
2490 25.396249
2490.5 25.473541
2491 25.41908
2491.5 25.545526
2492 25.302312
2492.5 25.645727
2493 25.509587
2493.5 25.715455
2494 25.648603
2494.5 25.787213
2495 25.703946
2495.5 25.706905
2496 25.872689
2496.5 25.662658
2497 25.9785
2497.5 25.664958
2498 25.942877
2498.5 25.675735
2499 25.792089
2499.5 25.625089
2500 25.748825
2500.5 25.711098
2501 25.673378
2501.5 25.772268
2502 25.782135
2502.5 25.827032
2503 25.501165
2503.5 25.841111
2504 25.735721
2504.5 25.84959
2505 25.858858
2505.5 25.830898
2506 25.910386
2506.5 25.822756
2507 25.951794
2507.5 25.745296
2508 25.865281
2508.5 25.840729
2509 25.966966
2509.5 25.828186
2510 25.903571
2510.5 25.977576
2511 25.957158
2511.5 25.976458
2512 25.669888
2512.5 25.951239
2513 25.761032
2513.5 25.983173
2514 25.743508
2514.5 26.079157
2515 25.912067
2515.5 26.070827
2516 26.037505
2516.5 26.061919
2517 26.191217
2517.5 26.149854
2518 26.352516
2518.5 26.032543
2519 26.230037
2519.5 26.081038
2520 26.136231
2520.5 26.068977
2521 26.057395
2521.5 26.233417
2522 25.99223
2522.5 26.268154
2523 25.991958
2523.5 26.283425
2524 26.001266
2524.5 26.218161
2525 26.105261
2525.5 26.249024
2526 26.197004
2526.5 26.16125
2527 26.242608
2527.5 26.145831
2528 26.400331
2528.5 26.030299
2529 26.294428
2529.5 26.155871
2530 26.213905
2530.5 26.198339
2531 26.131266
2531.5 26.318142
2532 26.270264
2532.5 26.529136
2533 26.254842
2533.5 26.585966
2534 26.206246
2534.5 26.478902
2535 26.395366
2535.5 26.559657
2536 26.579309
2536.5 26.590517
2537 26.573068
2537.5 26.292786
2538 26.521778
2538.5 26.422808
2539 26.615539
2539.5 26.423538
2540 26.528135
2540.5 26.475632
2541 26.47467
2541.5 26.584339
2542 26.434088
2542.5 26.595086
2543 26.413879
2543.5 26.617956
2544 26.383591
2544.5 26.647538
2545 26.536837
2545.5 26.53155
2546 26.518705
2546.5 26.380089
2547 26.512587
2547.5 26.481608
2548 26.641324
2548.5 26.371327
2549 26.755011
2549.5 26.571548
2550 26.770657
2550.5 26.652917
2551 26.69892
2551.5 26.845104
2552 26.718372
2552.5 26.902223
2553 26.781318
2553.5 26.974553
2554 26.888293
2554.5 27.037281
2555 26.951563
2555.5 26.848245
2556 26.892599
2556.5 26.902327
2557 26.892355
2557.5 26.631871
2558 26.870331
2558.5 26.592678
2559 26.773635
2559.5 26.570365
2560 26.82105
2560.5 26.610857
2561 26.944658
2561.5 26.734975
2562 26.831734
2562.5 27.048373
2563 26.913142
2563.5 27.15472
2564 26.945969
2564.5 27.068937
2565 26.980561
2565.5 27.1718
2566 27.062678
2566.5 27.02975
2567 27.118343
2567.5 27.001527
2568 27.042609
2568.5 26.74323
2569 27.099881
2569.5 26.920465
2570 27.169758
2570.5 26.86584
2571 27.042314
2571.5 26.835984
2572 26.90638
2572.5 27.040046
2573 27.151796
2573.5 27.276909
2574 27.189445
2574.5 27.286434
2575 27.108395
2575.5 27.261642
2576 27.225915
2576.5 27.448288
2577 27.363148
2577.5 27.208748
2578 27.253416
2578.5 26.986358
2579 27.230483
2579.5 27.013072
2580 27.234516
2580.5 27.018523
2581 27.2735
2581.5 27.187091
2582 27.097788
2582.5 27.146989
2583 27.073959
2583.5 27.402681
2584 27.347192
2584.5 27.455115
2585 27.331489
2585.5 27.600053
2586 27.413413
2586.5 27.48445
2587 27.560553
2587.5 27.580607
2588 27.669665
2588.5 27.402157
2589 27.492315
2589.5 27.227509
2590 27.489108
2590.5 27.312189
2591 27.284044
2591.5 27.178094
2592 27.250642
2592.5 27.384335
2593 27.341598
2593.5 27.501288
2594 27.327704
2594.5 27.753249
2595 27.601746
2595.5 27.826664
2596 27.633804
2596.5 27.818665
2597 27.792642
2597.5 27.843666
2598 27.94013
2598.5 27.493918
2599 27.705637
2599.5 27.476683
2600 27.646601
2600.5 27.475396
2601 27.554971
2601.5 27.573887
2602 27.669814
2602.5 27.579471
2603 27.4133
2603.5 27.682266
2604 27.592438
2604.5 27.860743
2605 27.710843
2605.5 27.973056
2606 27.703208
2606.5 27.973598
2607 27.78317
2607.5 27.9062
2608 27.975279
2608.5 27.984616
2609 28.136066
2609.5 27.912232
2610 28.216714
2610.5 27.864555
2611 27.904695
2611.5 27.735028
2612 27.789503
2612.5 27.881324
2613 27.797347
2613.5 27.792853
2614 27.563581
2614.5 27.99114
2615 27.628613
2615.5 27.807838
2616 27.677476
2616.5 27.95282
2617 28.038865
2617.5 28.100884
2618 28.156942
2618.5 28.152674
2619 28.289557
2619.5 28.150025
2620 28.243023
2620.5 27.8806
2621 28.188661
2621.5 28.016129
2622 28.185499
2622.5 28.164592
2623 28.118804
2623.5 27.917987
2624 27.811804
2624.5 28.134277
2625 27.936816
2625.5 28.091609
2626 27.816242
2626.5 28.066722
2627 27.915803
2627.5 28.043327
2628 27.869824
2628.5 28.022271
2629 28.118515
2629.5 28.286639
2630 28.294697
2630.5 28.119415
2631 28.320974
2631.5 28.195727
2632 28.317928
2632.5 28.252402
2633 28.318205
2633.5 28.276855
2634 28.42713
2634.5 28.364083
2635 28.202185
2635.5 28.477108
2636 28.202021
2636.5 28.491491
2637 28.239593
2637.5 28.475425
2638 28.230196
2638.5 28.406143
2639 28.282127
2639.5 28.224954
2640 28.301018
2640.5 28.190002
2641 28.330639
2641.5 28.180471
2642 28.47127
2642.5 28.345683
2643 28.577045
2643.5 28.476107
2644 28.46016
2644.5 28.582582
2645 28.609061
2645.5 28.760299
2646 28.46919
2646.5 28.65831
2647 28.239745
2647.5 28.531614
2648 28.358197
2648.5 28.556803
2649 28.512606
2649.5 28.520477
2650 28.551871
2650.5 28.520322
2651 28.704157
2651.5 28.390819
2652 28.758177
2652.5 28.57005
2653 28.607437
2653.5 28.665257
2654 28.664872
2654.5 28.705493
2655 28.589013
2655.5 28.732356
2656 28.58927
2656.5 28.792498
2657 28.535026
2657.5 28.802219
2658 28.607965
2658.5 28.797248
2659 28.66348
2659.5 28.80117
2660 28.873679
2660.5 28.552052
2661 28.847948
2661.5 28.907719
2662 28.921047
2662.5 28.632474
2663 28.686723
2663.5 28.687567
2664 28.740704
2664.5 28.883591
2665 28.893897
2665.5 28.904518
2666 28.79768
2666.5 28.976774
2667 28.721428
2667.5 28.966391
2668 28.709254
2668.5 28.986281
2669 28.842494
2669.5 28.876111
2670 29.019007
2670.5 29.024151
2671 29.150742
2671.5 28.752065
2672 29.221547
2672.5 28.91964
2673 29.186991
2673.5 29.022777
2674 29.266423
2674.5 29.166213
2675 29.171559
2675.5 29.167274
2676 29.130143
2676.5 29.421321
2677 29.290399
2677.5 29.484728
2678 29.204154
2678.5 29.297784
2679 29.236245
2679.5 29.29121
2680 29.326922
2680.5 29.161927
2681 29.311147
2681.5 29.164591
2682 29.340929
2682.5 29.012224
2683 29.367048
2683.5 29.151115
2684 29.362547
2684.5 29.315251
2685 29.358152
2685.5 29.467723
2686 29.43441
2686.5 29.544136
2687 29.3185
2687.5 29.406589
2688 29.215613
2688.5 29.294014
2689 29.11154
2689.5 29.233587
2690 29.302955
2690.5 29.240775
2691 29.217407
2691.5 29.039893
2692 29.281661
2692.5 29.077086
2693 29.23024
2693.5 29.052371
2694 29.480171
2694.5 29.297262
2695 29.608616
2695.5 29.441312
2696 29.429057
2696.5 29.519802
2697 29.380068
2697.5 29.626146
2698 29.402035
2698.5 29.65039
2699 29.446533
2699.5 29.681155
2700 29.577455
2700.5 29.60912
2701 29.737994
2701.5 29.471537
2702 29.711929
2702.5 29.334706
2703 29.634753
2703.5 29.301468
2704 29.586717
2704.5 29.366773
2705 29.494601
2705.5 29.422018
2706 29.439634
2706.5 29.520971
2707 29.307178
2707.5 29.459542
2708 29.280934
2708.5 29.670393
2709 29.546615
2709.5 29.787186
2710 29.759729
2710.5 29.877961
2711 29.879773
2711.5 29.836205
2712 30.065212
2712.5 29.622683
2713 29.728484
2713.5 29.56394
2714 29.688138
2714.5 29.440692
2715 29.555434
2715.5 29.50581
2716 29.600298
2716.5 29.533195
2717 29.336891
2717.5 29.600865
2718 29.473108
2718.5 29.57395
2719 29.36883
2719.5 29.607609
2720 29.612267
2720.5 29.802376
2721 29.891872
2721.5 29.824296
2722 29.860666
2722.5 29.837149
2723 29.928389
2723.5 29.752555
2724 30.071953
2724.5 29.859838
2725 30.037665
2725.5 29.81182
2726 29.878157
2726.5 29.990306
2727 29.933351
2727.5 30.024526
2728 29.78186
2728.5 30.03639
2729 29.807922
2729.5 29.987916
2730 29.62333
2730.5 29.900226
2731 29.786777
2731.5 29.900372
2732 29.847643
2732.5 29.823783
2733 29.905277
2733.5 29.745334
2734 29.91651
2734.5 29.878345
2735 29.92084
2735.5 29.74236
2736 29.841557
2736.5 29.784241
2737 29.699343
2737.5 29.686084
2738 29.651952
2738.5 29.756162
2739 29.64997
2739.5 30.136096
2740 29.764596
2740.5 30.105436
2741 30.034021
2741.5 30.156296
2742 30.09797
2742.5 30.164716
2743 30.276012
2743.5 30.058688
2744 30.295062
2744.5 30.013257
2745 30.359337
2745.5 30.171061
2746 30.229598
2746.5 30.076692
2747 30.053392
2747.5 30.105552
2748 30.047461
2748.5 30.253315
2749 29.923692
2749.5 30.143246
2750 29.99967
2750.5 30.13736
2751 29.988798
2751.5 30.019569
2752 30.039242
2752.5 30.130923
2753 30.164877
2753.5 29.888231
2754 30.244377
2754.5 30.116639
2755 30.194372
2755.5 29.980204
2756 30.287126
2756.5 30.114889
2757 30.21104
2757.5 30.206475
2758 30.125356
2758.5 30.233687
2759 30.025023
2759.5 30.119339
2760 29.888016
2760.5 30.057943
2761 29.990506
2761.5 30.143258
2762 30.184495
2762.5 30.21231
2763 30.39737
2763.5 30.330136
2764 30.370787
2764.5 29.95331
2765 30.498284
2765.5 30.291408
2766 30.520642
2766.5 30.252001
2767 30.447045
2767.5 30.273181
2768 30.344275
2768.5 30.42227
2769 30.347574
2769.5 30.651638
2770 30.368927
2770.5 30.496824
2771 30.438718
2771.5 30.532375
2772 30.532593
2772.5 30.46017
2773 30.381215
2773.5 30.319181
2774 30.527911
2774.5 30.356461
2775 30.459395
2775.5 30.156836
2776 30.438927
2776.5 30.265743
2777 30.37037
2777.5 30.429375
2778 30.418471
2778.5 30.445936
2779 30.27052
2779.5 30.45305
2780 30.283752
2780.5 30.510521
2781 30.146945
2781.5 30.39726
2782 30.170184
2782.5 30.251521
2783 30.363563
2783.5 30.383557
2784 30.4373
2784.5 30.302432
2785 30.490765
2785.5 30.236855
2786 30.662376
2786.5 30.249253
2787 30.701461
2787.5 30.385256
2788 30.590838
2788.5 30.752113
2789 30.584455
2789.5 30.76213
2790 30.576047
2790.5 30.808482
2791 30.660567
2791.5 31.001204
2792 30.750188
2792.5 30.835679
2793 30.682161
2793.5 30.622897
2794 30.683598
2794.5 30.589059
2795 30.706352
2795.5 30.461928
2796 30.617192
2796.5 30.355859
2797 30.632263
2797.5 30.451226
2798 30.49694
2798.5 30.340177
2799 30.230105
2799.5 30.685538
2800 30.776787
##END=
