##TITLE= W6723_5mm_240124
##JCAMP-DX= 4.24
##DATA TYPE= UV/VIS SPECTRUM
##ORIGIN=  Lambda-SPX/P Scan
##OWNER= Optiplex/OPTIPLEX-755
##DATE= 24.01.2024 17:08:41
##SPECTROMETER/DATA SYSTEM= Lambda 19 UV/Vis/NIR
##SAMPLE DESCRIPTION= 240124
##DELTAX= 0.5
##XUNITS= NANOMETERS
##YUNITS= TRANSMITTANCE
$$COMMENT= RTUNITS 0-1
##XFACTOR= 1.0
##YFACTOR= 0.01
##FIRSTX= 190
##LASTX= 2800
##NPOINTS= 5221
##FIRSTY= 0.002381
##MAXY= 0.362146
##MINY= -0.000047
##XYDATA= (XY..XY)
190 0.238144
190.5 0.189154
191 0.170968
191.5 0.144159
192 0.135177
192.5 0.109064
193 0.086955
193.5 0.056484
194 0.056951
194.5 0.029721
195 0.031151
195.5 0.019862
196 0.021175
196.5 0.008533
197 0.018711
197.5 0.006591
198 0.006447
198.5 0.001578
199 0.003881
199.5 0.004196
200 0.007349
200.5 0.006485
201 -0.00325
201.5 0.005975
202 -0.004734
202.5 0.00808
203 0.004128
203.5 0.00275
204 0.002235
204.5 0.003449
205 0.004011
205.5 0.000182
206 0.006686
206.5 0.000033
207 0.006823
207.5 0.005422
208 0.004425
208.5 0.002495
209 0.007198
209.5 0.004283
210 0.001693
210.5 0.004568
211 0.002485
211.5 0.008297
212 0.004871
212.5 0.005703
213 -0.003875
213.5 0.009271
214 0.000938
214.5 0.00557
215 0.001917
215.5 0.007199
216 0.008052
216.5 0.009321
217 0.006943
217.5 0.003205
218 0.00948
218.5 0.008894
219 0.013402
219.5 0.00842
220 0.010823
220.5 0.014637
221 0.013154
221.5 0.015732
222 0.010051
222.5 0.025078
223 0.015726
223.5 0.025877
224 0.01555
224.5 0.027084
225 0.028601
225.5 0.036426
226 0.03642
226.5 0.035505
227 0.044479
227.5 0.046315
228 0.058367
228.5 0.05708
229 0.070748
229.5 0.073121
230 0.086572
230.5 0.096819
231 0.103526
231.5 0.119584
232 0.123039
232.5 0.14252
233 0.14302
233.5 0.163954
234 0.165297
234.5 0.18299
235 0.183391
235.5 0.191855
236 0.199845
236.5 0.205893
237 0.215759
237.5 0.208336
238 0.217789
238.5 0.214728
239 0.225433
239.5 0.224331
240 0.224332
240.5 0.223664
241 0.223532
241.5 0.221092
242 0.218634
242.5 0.222295
243 0.214385
243.5 0.217383
244 0.212063
244.5 0.211496
245 0.205531
245.5 0.209484
246 0.203913
246.5 0.197155
247 0.198954
247.5 0.192062
248 0.197624
248.5 0.193346
249 0.189327
249.5 0.181346
250 0.184476
250.5 0.176495
251 0.177614
251.5 0.174629
252 0.171796
252.5 0.171583
253 0.170373
253.5 0.167339
254 0.15895
254.5 0.160459
255 0.156361
255.5 0.153654
256 0.157448
256.5 0.151039
257 0.155758
257.5 0.150462
258 0.14912
258.5 0.139186
259 0.14788
259.5 0.139125
260 0.145002
260.5 0.13278
261 0.139195
261.5 0.131746
262 0.137511
262.5 0.132704
263 0.134325
263.5 0.132327
264 0.131159
264.5 0.132781
265 0.127645
265.5 0.127457
266 0.127726
266.5 0.129649
267 0.125994
267.5 0.120837
268 0.130537
268.5 0.122303
269 0.126471
269.5 0.113696
270 0.124284
270.5 0.113731
271 0.125086
271.5 0.114204
272 0.115056
272.5 0.120242
273 0.117186
273.5 0.119447
274 0.112746
274.5 0.119009
275 0.113585
275.5 0.119878
276 0.117592
276.5 0.117051
277 0.119912
277.5 0.115882
278 0.121898
278.5 0.113278
279 0.12692
279.5 0.112495
280 0.123724
280.5 0.115569
281 0.117138
281.5 0.120647
282 0.120303
282.5 0.118761
283 0.113957
283.5 0.12309
284 0.116736
284.5 0.127326
285 0.125178
285.5 0.123453
286 0.125213
286.5 0.126781
287 0.131505
287.5 0.127372
288 0.134372
288.5 0.128012
289 0.139425
289.5 0.136529
290 0.138669
290.5 0.135891
291 0.144854
291.5 0.143256
292 0.141365
292.5 0.149034
293 0.147552
293.5 0.15483
294 0.154835
294.5 0.162791
295 0.158258
295.5 0.169131
296 0.163484
296.5 0.171638
297 0.173206
297.5 0.177732
298 0.183737
298.5 0.190077
299 0.191153
299.5 0.19455
300 0.203079
300.5 0.205069
301 0.213575
301.5 0.214895
302 0.220626
302.5 0.228997
303 0.22712
303.5 0.23826
304 0.242807
304.5 0.254485
305 0.250554
305.5 0.262338
306 0.262741
306.5 0.275139
307 0.281151
307.5 0.294903
308 0.298224
308.5 0.304021
309 0.319571
309.5 0.318964
310 0.334772
310.5 0.338158
311 0.363351
311.5 0.363225
312 0.385836
312.5 0.390902
313 0.400812
313.5 0.419087
314 0.426588
314.5 0.442858
315 0.440478
315.5 0.471798
316 0.469671
316.5 0.500623
317 0.503879
317.5 0.52965
318 0.543921
318.5 0.555552
319 0.550167
319.5 0.599974
320 0.618602
320.5 0.627662
321 0.649283
321.5 0.66621
322 0.692705
322.5 0.710479
323 0.737716
323.5 0.751411
324 0.763799
324.5 0.799479
325 0.804375
325.5 0.844907
326 0.847773
326.5 0.870179
327 0.888168
327.5 0.919178
328 0.933507
328.5 0.958551
329 0.971615
329.5 0.991091
330 1.02207
330.5 1.036607
331 1.068413
331.5 1.094746
332 1.120743
332.5 1.134756
333 1.165899
333.5 1.184113
334 1.205634
334.5 1.23202
335 1.265151
335.5 1.304992
336 1.302002
336.5 1.334961
337 1.356596
337.5 1.381563
338 1.411327
338.5 1.434284
339 1.456942
339.5 1.492104
340 1.525806
340.5 1.534472
341 1.577828
341.5 1.595406
342 1.631158
342.5 1.661079
343 1.686584
343.5 1.709767
344 1.740519
344.5 1.760333
345 1.799793
345.5 1.834496
346 1.849662
346.5 1.891486
347 1.914122
347.5 1.938107
348 1.966097
348.5 1.987632
349 2.030262
349.5 2.049929
350 2.087663
350.5 2.118821
351 2.143964
351.5 2.170008
352 2.209815
352.5 2.227498
353 2.251787
353.5 2.27364
354 2.294686
354.5 2.327532
355 2.375256
355.5 2.38101
356 2.420853
356.5 2.436959
357 2.461309
357.5 2.49273
358 2.507273
358.5 2.551637
359 2.558411
359.5 2.597622
360 2.630684
360.5 2.648455
361 2.680403
361.5 2.707592
362 2.719188
362.5 2.754132
363 2.798738
363.5 2.823123
364 2.85583
364.5 2.8616
365 2.915053
365.5 2.937626
366 2.968673
366.5 3.009015
367 3.02919
367.5 3.075539
368 3.100933
368.5 3.134606
369 3.182375
369.5 3.209168
370 3.250038
370.5 3.297769
371 3.347098
371.5 3.377351
372 3.451612
372.5 3.466216
373 3.522327
373.5 3.560251
374 3.629045
374.5 3.676194
375 3.726733
375.5 3.782861
376 3.812043
376.5 3.883804
377 3.928308
377.5 3.998487
378 4.062432
378.5 4.113775
379 4.172055
379.5 4.294145
380 4.367796
380.5 4.416347
381 4.473601
381.5 4.562596
382 4.638753
382.5 4.666122
383 4.741828
383.5 4.81671
384 4.885866
384.5 4.94306
385 4.987215
385.5 5.064677
386 5.135564
386.5 5.217074
387 5.295902
387.5 5.354285
388 5.393268
388.5 5.449365
389 5.545693
389.5 5.575712
390 5.626978
390.5 5.6797
391 5.743707
391.5 5.794887
392 5.837265
392.5 5.912484
393 5.944736
393.5 6.00114
394 6.045328
394.5 6.077677
395 6.126602
395.5 6.19386
396 6.239216
396.5 6.270177
397 6.296111
397.5 6.363871
398 6.394671
398.5 6.42881
399 6.492619
399.5 6.493091
400 6.544108
400.5 6.576288
401 6.601064
401.5 6.618053
402 6.646188
402.5 6.678765
403 6.716459
403.5 6.730128
404 6.739641
404.5 6.793457
405 6.842763
405.5 6.828391
406 6.847967
406.5 6.881791
407 6.895363
407.5 6.921935
408 6.93078
408.5 6.959722
409 6.993561
409.5 7.030597
410 7.035463
410.5 7.034179
411 7.075273
411.5 7.119585
412 7.121155
412.5 7.143039
413 7.156978
413.5 7.169256
414 7.209685
414.5 7.209363
415 7.235464
415.5 7.247528
416 7.259259
416.5 7.258609
417 7.29039
417.5 7.277299
418 7.338514
418.5 7.335359
419 7.368338
419.5 7.324685
420 7.394524
420.5 7.379298
421 7.388827
421.5 7.413226
422 7.415467
422.5 7.429817
423 7.454064
423.5 7.478657
424 7.471667
424.5 7.459174
425 7.478712
425.5 7.483286
426 7.498366
426.5 7.509889
427 7.531656
427.5 7.542228
428 7.559144
428.5 7.525664
429 7.52173
429.5 7.527636
430 7.553083
430.5 7.571215
431 7.553177
431.5 7.579169
432 7.573275
432.5 7.616024
433 7.594702
433.5 7.569548
434 7.571115
434.5 7.607643
435 7.596733
435.5 7.583939
436 7.60011
436.5 7.593386
437 7.630581
437.5 7.613248
438 7.605893
438.5 7.597416
439 7.61797
439.5 7.601314
440 7.629792
440.5 7.612078
441 7.595395
441.5 7.596918
442 7.638962
442.5 7.630159
443 7.625034
443.5 7.621165
444 7.618061
444.5 7.619928
445 7.622469
445.5 7.625112
446 7.642159
446.5 7.659372
447 7.633665
447.5 7.65859
448 7.666572
448.5 7.649396
449 7.659661
449.5 7.659622
450 7.6649
450.5 7.687115
451 7.707674
451.5 7.689854
452 7.709704
452.5 7.703602
453 7.726504
453.5 7.71541
454 7.744516
454.5 7.75734
455 7.754493
455.5 7.779974
456 7.80583
456.5 7.79105
457 7.833651
457.5 7.811973
458 7.842682
458.5 7.849818
459 7.872547
459.5 7.885112
460 7.887334
460.5 7.88625
461 7.936968
461.5 7.939465
462 7.934038
462.5 7.950569
463 7.962382
463.5 7.990079
464 8.011878
464.5 8.036933
465 8.04714
465.5 8.076146
466 8.068241
466.5 8.100179
467 8.135497
467.5 8.138854
468 8.145614
468.5 8.14596
469 8.176228
469.5 8.195224
470 8.219524
470.5 8.241609
471 8.255623
471.5 8.272149
472 8.287671
472.5 8.298535
473 8.327116
473.5 8.359956
474 8.376969
474.5 8.397546
475 8.415825
475.5 8.436868
476 8.481299
476.5 8.489095
477 8.5095
477.5 8.517107
478 8.576277
478.5 8.592108
479 8.635379
479.5 8.62816
480 8.675788
480.5 8.697904
481 8.728042
481.5 8.749918
482 8.789075
482.5 8.806653
483 8.835635
483.5 8.886094
484 8.895501
484.5 8.943874
485 8.954097
485.5 9.0069
486 9.00451
486.5 9.041099
487 9.072428
487.5 9.138373
488 9.156184
488.5 9.16381
489 9.233245
489.5 9.24757
490 9.273125
490.5 9.300143
491 9.345586
491.5 9.353006
492 9.389256
492.5 9.419416
493 9.42207
493.5 9.465753
494 9.482377
494.5 9.518068
495 9.536142
495.5 9.587692
496 9.583799
496.5 9.634241
497 9.636027
497.5 9.693424
498 9.706509
498.5 9.721357
499 9.74417
499.5 9.774213
500 9.787881
500.5 9.818043
501 9.843727
501.5 9.870245
502 9.897252
502.5 9.925116
503 9.95772
503.5 9.974255
504 9.98194
504.5 10.01338
505 10.040127
505.5 10.056553
506 10.077347
506.5 10.11069
507 10.136668
507.5 10.146392
508 10.170028
508.5 10.191967
509 10.21052
509.5 10.25288
510 10.286681
510.5 10.309681
511 10.324805
511.5 10.328861
512 10.374061
512.5 10.394429
513 10.416009
513.5 10.420684
514 10.461408
514.5 10.480683
515 10.486593
515.5 10.503804
516 10.536379
516.5 10.546997
517 10.561087
517.5 10.593168
518 10.601492
518.5 10.616813
519 10.615391
519.5 10.647962
520 10.65044
520.5 10.676055
521 10.688955
521.5 10.693625
522 10.709707
522.5 10.717412
523 10.736144
523.5 10.739806
524 10.74455
524.5 10.748126
525 10.761832
525.5 10.775911
526 10.783881
526.5 10.781438
527 10.800613
527.5 10.795096
528 10.801781
528.5 10.820032
529 10.813089
529.5 10.815131
530 10.818727
530.5 10.824853
531 10.826328
531.5 10.815545
532 10.827061
532.5 10.832697
533 10.854014
533.5 10.822368
534 10.828608
534.5 10.840365
535 10.844557
535.5 10.841898
536 10.837955
536.5 10.858536
537 10.825239
537.5 10.814095
538 10.834055
538.5 10.829587
539 10.813726
539.5 10.827347
540 10.816018
540.5 10.8018
541 10.801436
541.5 10.796811
542 10.805707
542.5 10.780261
543 10.798986
543.5 10.778455
544 10.789295
544.5 10.758495
545 10.761479
545.5 10.762447
546 10.739262
546.5 10.740055
547 10.732239
547.5 10.736032
548 10.698942
548.5 10.707787
549 10.704914
549.5 10.685579
550 10.668
550.5 10.671272
551 10.657561
551.5 10.630184
552 10.645849
552.5 10.608607
553 10.616748
553.5 10.598586
554 10.596655
554.5 10.578645
555 10.583144
555.5 10.578844
556 10.559659
556.5 10.542084
557 10.529118
557.5 10.530097
558 10.513353
558.5 10.519764
559 10.456071
559.5 10.476198
560 10.465831
560.5 10.448564
561 10.408396
561.5 10.416421
562 10.400043
562.5 10.37953
563 10.355837
563.5 10.363252
564 10.344371
564.5 10.329741
565 10.312474
565.5 10.293546
566 10.28921
566.5 10.278082
567 10.254876
567.5 10.231559
568 10.23562
568.5 10.213996
569 10.222305
569.5 10.204448
570 10.187554
570.5 10.18369
571 10.178982
571.5 10.169335
572 10.132369
572.5 10.153543
573 10.127218
573.5 10.106052
574 10.102061
574.5 10.103426
575 10.090932
575.5 10.067008
576 10.056671
576.5 10.045528
577 10.049808
577.5 10.027992
578 10.036337
578.5 10.007527
579 10.008276
579.5 10.001083
580 10.013723
580.5 10.003762
581 9.97073
581.5 9.976154
582 9.969916
582.5 9.976602
583 9.958634
583.5 9.9559
584 9.958968
584.5 9.95836
585 9.942811
585.5 9.935521
586 9.934125
586.5 9.923541
587 9.925117
587.5 9.91488
588 9.928123
588.5 9.922542
589 9.926224
589.5 9.884141
590 9.903111
590.5 9.902869
591 9.902339
591.5 9.920605
592 9.880475
592.5 9.908946
593 9.880041
593.5 9.901489
594 9.899263
594.5 9.907439
595 9.886114
595.5 9.908925
596 9.889387
596.5 9.90081
597 9.899886
597.5 9.890021
598 9.903318
598.5 9.893776
599 9.907912
599.5 9.896003
600 9.907357
600.5 9.893224
601 9.891678
601.5 9.899819
602 9.90483
602.5 9.907849
603 9.915059
603.5 9.917222
604 9.912559
604.5 9.927975
605 9.914599
605.5 9.916542
606 9.93828
606.5 9.926487
607 9.930065
607.5 9.933352
608 9.933688
608.5 9.923194
609 9.938486
609.5 9.931757
610 9.948059
610.5 9.92655
611 9.943227
611.5 9.952967
612 9.95122
612.5 9.977583
613 9.954491
613.5 9.96111
614 9.9596
614.5 9.971292
615 9.967927
615.5 9.965675
616 9.978894
616.5 9.95533
617 9.96777
617.5 9.967565
618 9.969597
618.5 9.987486
619 9.993846
619.5 9.988933
620 9.982359
620.5 9.998561
621 10.002232
621.5 9.999324
622 9.996872
622.5 10.009199
623 9.991071
623.5 10.00846
624 10.005325
624.5 10.020619
625 10.016502
625.5 10.010121
626 10.01102
626.5 10.025892
627 10.020799
627.5 10.024673
628 10.024919
628.5 10.010128
629 10.041267
629.5 10.027244
630 10.034756
630.5 10.039864
631 10.069551
631.5 10.048173
632 10.046893
632.5 10.04538
633 10.049553
633.5 10.04847
634 10.037893
634.5 10.047201
635 10.043024
635.5 10.064733
636 10.044216
636.5 10.046318
637 10.054959
637.5 10.039621
638 10.061865
638.5 10.058494
639 10.074171
639.5 10.080004
640 10.069148
640.5 10.077529
641 10.087089
641.5 10.064641
642 10.076477
642.5 10.079353
643 10.081675
643.5 10.082292
644 10.074458
644.5 10.088334
645 10.084201
645.5 10.084793
646 10.101725
646.5 10.081017
647 10.085392
647.5 10.095292
648 10.09246
648.5 10.085975
649 10.096212
649.5 10.101637
650 10.111708
650.5 10.11097
651 10.110608
651.5 10.105729
652 10.086747
652.5 10.104088
653 10.098983
653.5 10.110454
654 10.095065
654.5 10.112407
655 10.116017
655.5 10.103003
656 10.118411
656.5 10.108602
657 10.124622
657.5 10.11742
658 10.124518
658.5 10.11557
659 10.13265
659.5 10.115496
660 10.120311
660.5 10.136025
661 10.109763
661.5 10.127239
662 10.135952
662.5 10.105959
663 10.123334
663.5 10.125056
664 10.129544
664.5 10.127287
665 10.123929
665.5 10.134051
666 10.119082
666.5 10.11897
667 10.116777
667.5 10.119146
668 10.112233
668.5 10.116264
669 10.130043
669.5 10.124776
670 10.120042
670.5 10.102455
671 10.122658
671.5 10.113765
672 10.1152
672.5 10.107455
673 10.095094
673.5 10.114382
674 10.095556
674.5 10.118596
675 10.094669
675.5 10.110027
676 10.101629
676.5 10.109244
677 10.108201
677.5 10.126261
678 10.110296
678.5 10.095569
679 10.099405
679.5 10.09787
680 10.094758
680.5 10.102304
681 10.078952
681.5 10.083231
682 10.082913
682.5 10.104975
683 10.0964
683.5 10.078916
684 10.07913
684.5 10.087088
685 10.068026
685.5 10.064643
686 10.083853
686.5 10.089859
687 10.0741
687.5 10.062607
688 10.090361
688.5 10.084174
689 10.098127
689.5 10.082566
690 10.071345
690.5 10.079465
691 10.05954
691.5 10.070459
692 10.068767
692.5 10.056144
693 10.069156
693.5 10.071436
694 10.069719
694.5 10.058131
695 10.038724
695.5 10.043513
696 10.053031
696.5 10.053563
697 10.083443
697.5 10.045473
698 10.051668
698.5 10.054392
699 10.046595
699.5 10.05464
700 10.045359
700.5 10.059372
701 10.052216
701.5 10.045969
702 10.038148
702.5 10.026839
703 10.028528
703.5 10.033508
704 10.041315
704.5 10.024603
705 10.005761
705.5 10.043613
706 10.039481
706.5 10.039033
707 10.047822
707.5 10.029372
708 10.05863
708.5 10.026988
709 10.039714
709.5 10.017955
710 10.03681
710.5 10.044567
711 10.007137
711.5 10.034309
712 10.002083
712.5 10.015368
713 10.006874
713.5 10.021627
714 10.014097
714.5 10.025021
715 10.00689
715.5 10.011715
716 10.024412
716.5 10.002742
717 10.018069
717.5 9.985973
718 10.005552
718.5 10.004357
719 10.028315
719.5 10.013561
720 9.997629
720.5 10.000103
721 10.003644
721.5 10.008869
722 9.994448
722.5 10.024256
723 9.989011
723.5 9.993869
724 10.009173
724.5 9.98732
725 9.996934
725.5 9.990909
726 10.003121
726.5 9.966534
727 10.01562
727.5 9.988727
728 10.026003
728.5 10.016047
729 10.005189
729.5 10.005787
730 10.015489
730.5 9.979725
731 10.008776
731.5 10.010429
732 9.991238
732.5 10.030113
733 9.995403
733.5 10.013134
734 9.997938
734.5 10.003191
735 9.985438
735.5 9.992583
736 10.007809
736.5 9.980007
737 9.993167
737.5 10.002116
738 10.011508
738.5 9.986895
739 10.008734
739.5 10.011206
740 10.006987
740.5 9.998615
741 10.02584
741.5 10.000035
742 9.996682
742.5 9.983541
743 9.999338
743.5 10.009266
744 9.995409
744.5 10.002906
745 10.018619
745.5 10.003123
746 9.998856
746.5 10.00464
747 9.995599
747.5 9.979403
748 10.010166
748.5 9.997823
749 10.014492
749.5 10.005912
750 9.989689
750.5 9.997412
751 9.991517
751.5 9.998827
752 9.96402
752.5 9.997753
753 10.007452
753.5 10.033736
754 10.002674
754.5 10.000215
755 9.995262
755.5 10.013521
756 9.979841
756.5 10.014307
757 9.991528
757.5 9.997132
758 10.0121
758.5 9.978767
759 10.004174
759.5 10.016724
760 9.991705
760.5 10.026111
761 9.972469
761.5 10.007676
762 9.975095
762.5 9.99921
763 10.017221
763.5 10.02719
764 9.977205
764.5 9.975226
765 10.018094
765.5 9.985596
766 10.001311
766.5 9.985819
767 10.021365
767.5 9.979548
768 10.018832
768.5 10.009447
769 10.014103
769.5 10.009217
770 9.990299
770.5 9.969721
771 10.002517
771.5 10.017218
772 10.014435
772.5 10.037644
773 9.989833
773.5 9.997912
774 9.985947
774.5 10.02718
775 10.002537
775.5 9.982481
776 10.011565
776.5 9.983457
777 9.981187
777.5 10.002724
778 10.020558
778.5 10.019822
779 10.009546
779.5 9.999601
780 10.019059
780.5 9.994796
781 9.991303
781.5 10.022388
782 9.991689
782.5 10.011087
783 10.02437
783.5 10.023378
784 9.994899
784.5 9.979685
785 10.025433
785.5 9.997609
786 10.028204
786.5 9.99176
787 10.002857
787.5 10.011974
788 10.019895
788.5 10.013068
789 10.014021
789.5 10.023531
790 10.005172
790.5 10.029113
791 9.993995
791.5 10.008214
792 9.994446
792.5 10.009447
793 9.996452
793.5 10.019045
794 10.019539
794.5 9.993019
795 10.025313
795.5 10.033906
796 10.029748
796.5 9.988444
797 9.997335
797.5 10.00651
798 9.996406
798.5 10.027117
799 10.059669
799.5 10.037565
800 9.99594
800.5 10.062086
801 10.023969
801.5 10.059288
802 10.032445
802.5 10.019642
803 10.052336
803.5 10.055123
804 10.010291
804.5 10.026324
805 10.015872
805.5 10.04768
806 10.014336
806.5 9.999244
807 10.04909
807.5 10.015219
808 10.031433
808.5 10.014839
809 10.054546
809.5 10.032748
810 10.092144
810.5 9.998123
811 10.069945
811.5 10.039368
812 10.048307
812.5 10.030338
813 10.052199
813.5 10.057116
814 10.004454
814.5 10.0228
815 10.034927
815.5 10.047419
816 10.032818
816.5 10.049576
817 10.037331
817.5 10.029437
818 10.000282
818.5 10.020223
819 10.007917
819.5 10.039014
820 10.032585
820.5 10.012832
821 10.065547
821.5 10.051171
822 10.042553
822.5 9.97873
823 10.056973
823.5 10.031271
824 10.052038
824.5 9.997624
825 10.001468
825.5 10.00876
826 10.015002
826.5 10.061552
827 10.001034
827.5 10.015769
828 9.972449
828.5 9.985675
829 10.017458
829.5 10.006862
830 10.021389
830.5 9.957621
831 9.98567
831.5 9.993351
832 9.983563
832.5 9.96599
833 9.905872
833.5 9.94482
834 9.936011
834.5 9.933589
835 9.910379
835.5 9.954876
836 9.929319
836.5 9.946977
837 9.940467
837.5 9.931681
838 9.974843
838.5 9.945748
839 10.00258
839.5 9.924424
840 9.946963
840.5 9.928136
841 9.877723
841.5 9.902523
842 9.932435
842.5 9.921476
843 9.94746
843.5 9.930312
844 9.934714
844.5 9.918653
845 9.899936
845.5 9.886055
846 9.87051
846.5 9.879882
847 9.878872
847.5 9.990487
848 9.874458
848.5 9.955183
849 9.927704
849.5 9.907366
850 9.884596
850.5 9.865754
851 9.977814
851.5 9.898078
852 9.991332
852.5 9.965294
853 9.951578
853.5 9.933936
854 9.867862
854.5 9.890702
855 9.926485
855.5 9.870824
856 9.96682
856.5 10.002799
857 9.990138
857.5 9.982274
858 9.97334
858.5 10.021457
859 10.020775
859.5 9.936456
860 9.960572
860.5 9.968928
861 7.233782
861.5 7.169114
862 7.268964
862.5 7.279966
863 7.307718
863.5 7.104969
864 7.348942
864.5 7.280771
865 7.334637
865.5 7.249669
866 7.339869
866.5 7.300242
867 7.298799
867.5 7.325457
868 7.199863
868.5 7.390176
869 7.195315
869.5 7.362104
870 7.227509
870.5 7.285845
871 7.234102
871.5 7.286663
872 7.383
872.5 7.163155
873 7.386321
873.5 7.238689
874 7.417949
874.5 7.124055
875 7.40416
875.5 7.229574
876 7.372694
876.5 7.271458
877 7.309572
877.5 7.380003
878 7.294088
878.5 7.362522
879 7.295485
879.5 7.424904
880 7.253093
880.5 7.403528
881 7.291023
881.5 7.322124
882 7.334626
882.5 7.296898
883 7.392554
883.5 7.176941
884 7.408766
884.5 7.126909
885 7.438003
885.5 7.252316
886 7.364537
886.5 7.327619
887 7.387371
887.5 7.338005
888 7.338434
888.5 7.444873
889 7.239342
889.5 7.464541
890 7.319117
890.5 7.461926
891 7.385667
891.5 7.378648
892 7.418409
892.5 7.326433
893 7.496711
893.5 7.261389
894 7.498199
894.5 7.272894
895 7.485147
895.5 7.194159
896 7.47506
896.5 7.336141
897 7.416005
897.5 7.335487
898 7.255895
898.5 7.454661
899 7.385876
899.5 7.421152
900 7.298244
900.5 7.532578
901 7.379805
901.5 7.452493
902 7.467149
902.5 7.461941
903 7.523628
903.5 7.358702
904 7.498143
904.5 7.32954
905 7.544006
905.5 7.391786
906 7.510035
906.5 7.341785
907 7.347637
907.5 7.439877
908 7.374905
908.5 7.434896
909 7.243688
909.5 7.544902
910 7.355457
910.5 7.469669
911 7.338054
911.5 7.492162
912 7.491852
912.5 7.459306
913 7.451225
913.5 7.427594
914 7.556637
914.5 7.439614
915 7.47178
915.5 7.394017
916 7.497933
916.5 7.424641
917 7.481177
917.5 7.409778
918 7.373186
918.5 7.523285
919 7.440177
919.5 7.541166
920 7.230836
920.5 7.526933
921 7.293138
921.5 7.55446
922 7.369944
922.5 7.53421
923 7.520282
923.5 7.500717
924 7.562996
924.5 7.49571
925 7.545929
925.5 7.367399
926 7.560785
926.5 7.451829
927 7.478894
927.5 7.514337
928 7.524003
928.5 7.529466
929 7.355389
929.5 7.585721
930 7.306284
930.5 7.612348
931 7.316768
931.5 7.561409
932 7.433386
932.5 7.576349
933 7.513402
933.5 7.491466
934 7.546514
934.5 7.424936
935 7.581478
935.5 7.460753
936 7.622204
936.5 7.46832
937 7.628717
937.5 7.491734
938 7.524218
938.5 7.595453
939 7.498752
939.5 7.686437
940 7.453082
940.5 7.652453
941 7.427402
941.5 7.667273
942 7.457671
942.5 7.524994
943 7.453741
943.5 7.505981
944 7.583096
944.5 7.591465
945 7.631247
945.5 7.399122
946 7.626128
946.5 7.555793
947 7.647181
947.5 7.511615
948 7.619559
948.5 7.586946
949 7.575638
949.5 7.630349
950 7.588657
950.5 7.757619
951 7.521755
951.5 7.610142
952 7.529452
952.5 7.649732
953 7.648174
953.5 7.625671
954 7.548545
954.5 7.484921
955 7.683233
955.5 7.596909
956 7.643231
956.5 7.462852
957 7.659287
957.5 7.538495
958 7.73719
958.5 7.586361
959 7.640136
959.5 7.673541
960 7.628955
960.5 7.702051
961 7.542349
961.5 7.776824
962 7.55379
962.5 7.689268
963 7.626624
963.5 7.633555
964 7.70127
964.5 7.664306
965 7.653341
965.5 7.540316
966 7.793915
966.5 7.452912
967 7.74529
967.5 7.5086
968 7.755819
968.5 7.610682
969 7.707218
969.5 7.650037
970 7.657276
970.5 7.644601
971 7.55134
971.5 7.74072
972 7.629324
972.5 7.703337
973 7.657075
973.5 7.774642
974 7.666074
974.5 7.65731
975 7.701319
975.5 7.570763
976 7.783926
976.5 7.527914
977 7.720279
977.5 7.549934
978 7.810318
978.5 7.637005
979 7.752464
979.5 7.636154
980 7.618318
980.5 7.776989
981 7.651866
981.5 7.807945
982 7.596667
982.5 7.833332
983 7.717197
983.5 7.732955
984 7.717042
984.5 7.727101
985 7.788003
985.5 7.679912
986 7.866639
986.5 7.59865
987 7.859382
987.5 7.725272
988 7.753761
988.5 7.60918
989 7.751635
989.5 7.743541
990 7.749455
990.5 7.816804
991 7.550654
991.5 7.832181
992 7.698686
992.5 7.82619
993 7.694545
993.5 7.806437
994 7.715589
994.5 7.790054
995 7.800846
995.5 7.82086
996 7.941671
996.5 7.73169
997 7.859671
997.5 7.661643
998 7.808616
998.5 7.740469
999 7.8739
999.5 7.761515
1000 7.750192
1000.5 7.814388
1001 7.809772
1001.5 7.820312
1002 7.595821
1002.5 7.872379
1003 7.643713
1003.5 7.895198
1004 7.75185
1004.5 7.89447
1005 7.777858
1005.5 7.78001
1006 7.776538
1006.5 7.834356
1007 7.846034
1007.5 7.713673
1008 8.018851
1008.5 7.840714
1009 7.88386
1009.5 7.8285
1010 7.847714
1010.5 7.792819
1011 7.77454
1011.5 7.949286
1012 7.736377
1012.5 7.937152
1013 7.739682
1013.5 7.945979
1014 7.63993
1014.5 7.934516
1015 7.794316
1015.5 7.883673
1016 7.850463
1016.5 7.807063
1017 7.919884
1017.5 7.798029
1018 7.930791
1018.5 7.836756
1019 8.008776
1019.5 7.954823
1020 7.929821
1020.5 7.873601
1021 7.844241
1021.5 7.944244
1022 7.919982
1022.5 8.046718
1023 7.728335
1023.5 8.041301
1024 7.876274
1024.5 7.959277
1025 7.818541
1025.5 7.864125
1026 7.840102
1026.5 7.9012
1027 8.006473
1027.5 7.765093
1028 8.026861
1028.5 7.915141
1029 7.973372
1029.5 7.815118
1030 7.945729
1030.5 7.962205
1031 7.987927
1031.5 8.06886
1032 7.976828
1032.5 8.069888
1033 7.923256
1033.5 7.973989
1034 7.876648
1034.5 8.042867
1035 7.988017
1035.5 8.052658
1036 7.925599
1036.5 7.829446
1037 8.049603
1037.5 8.043456
1038 8.033276
1038.5 7.755622
1039 8.042262
1039.5 7.887173
1040 7.979311
1040.5 7.96084
1041 8.046839
1041.5 7.994405
1042 8.033343
1042.5 8.096842
1043 7.935418
1043.5 8.106335
1044 7.955497
1044.5 8.01847
1045 7.967319
1045.5 8.067709
1046 8.101729
1046.5 8.090602
1047 8.072687
1047.5 7.927342
1048 8.190566
1048.5 8.016696
1049 8.203533
1049.5 7.85306
1050 8.170211
1050.5 7.989696
1051 8.115914
1051.5 8.053098
1052 7.992938
1052.5 8.012162
1053 7.886248
1053.5 8.134943
1054 8.007833
1054.5 8.27476
1055 8.06837
1055.5 8.254573
1056 8.132806
1056.5 8.129583
1057 8.183937
1057.5 8.064945
1058 8.111823
1058.5 8.000886
1059 8.262902
1059.5 7.920518
1060 8.220349
1060.5 7.98341
1061 8.146685
1061.5 8.0318
1062 8.120913
1062.5 8.19653
1063 8.1291
1063.5 8.194654
1064 7.920765
1064.5 8.323699
1065 8.143235
1065.5 8.210346
1066 8.15194
1066.5 8.228495
1067 8.200043
1067.5 8.194339
1068 8.314401
1068.5 8.127496
1069 8.331643
1069.5 8.094525
1070 8.279359
1070.5 8.080436
1071 8.22681
1071.5 8.140112
1072 8.208737
1072.5 8.232813
1073 8.043464
1073.5 8.27795
1074 8.188447
1074.5 8.241744
1075 8.095932
1075.5 8.351701
1076 8.168932
1076.5 8.313525
1077 8.279867
1077.5 8.214733
1078 8.387978
1078.5 8.256203
1079 8.424968
1079.5 8.244593
1080 8.345985
1080.5 8.211499
1081 8.311184
1081.5 8.190141
1082 8.18985
1082.5 8.299924
1083 8.212061
1083.5 8.270134
1084 8.07873
1084.5 8.388104
1085 8.298788
1085.5 8.357992
1086 8.243734
1086.5 8.320855
1087 8.229111
1087.5 8.344951
1088 8.268704
1088.5 8.27179
1089 8.315371
1089.5 8.328465
1090 8.394904
1090.5 8.193627
1091 8.439179
1091.5 8.390218
1092 8.401129
1092.5 8.290665
1093 8.241414
1093.5 8.377085
1094 8.242945
1094.5 8.516062
1095 8.172314
1095.5 8.501414
1096 8.246306
1096.5 8.554142
1097 8.295576
1097.5 8.328494
1098 8.325584
1098.5 8.301761
1099 8.422426
1099.5 8.340511
1100 8.517611
1100.5 8.378047
1101 8.582806
1101.5 8.407599
1102 8.435454
1102.5 8.434706
1103 8.410808
1103.5 8.536555
1104 8.362596
1104.5 8.542202
1105 8.281677
1105.5 8.462886
1106 8.380659
1106.5 8.484954
1107 8.314143
1107.5 8.414193
1108 8.439501
1108.5 8.398309
1109 8.505205
1109.5 8.354947
1110 8.579365
1110.5 8.482996
1111 8.520466
1111.5 8.401996
1112 8.568998
1112.5 8.470599
1113 8.548227
1113.5 8.570041
1114 8.471479
1114.5 8.63622
1115 8.495915
1115.5 8.58897
1116 8.419942
1116.5 8.649088
1117 8.515152
1117.5 8.585533
1118 8.554804
1118.5 8.435809
1119 8.565646
1119.5 8.467402
1120 8.573931
1120.5 8.337033
1121 8.60228
1121.5 8.446079
1122 8.663957
1122.5 8.558031
1123 8.627389
1123.5 8.621506
1124 8.563484
1124.5 8.667424
1125 8.639865
1125.5 8.806568
1126 8.549044
1126.5 8.679563
1127 8.601785
1127.5 8.667842
1128 8.606622
1128.5 8.651973
1129 8.707426
1129.5 8.552082
1130 8.754776
1130.5 8.52339
1131 8.662642
1131.5 8.41716
1132 8.63382
1132.5 8.478969
1133 8.621942
1133.5 8.593965
1134 8.663913
1134.5 8.67349
1135 8.641145
1135.5 8.683595
1136 8.566511
1136.5 8.795822
1137 8.604573
1137.5 8.804902
1138 8.663841
1138.5 8.711185
1139 8.776944
1139.5 8.717149
1140 8.804502
1140.5 8.621657
1141 8.815993
1141.5 8.55771
1142 8.8037
1142.5 8.609336
1143 8.758745
1143.5 8.677043
1144 8.773571
1144.5 8.850564
1145 8.776288
1145.5 8.877399
1146 8.673242
1146.5 8.90547
1147 8.783213
1147.5 8.831567
1148 8.786338
1148.5 8.783317
1149 8.768728
1149.5 8.76376
1150 8.898562
1150.5 8.639517
1151 8.875212
1151.5 8.677681
1152 8.845984
1152.5 8.613101
1153 8.77654
1153.5 8.805558
1154 8.886033
1154.5 8.861883
1155 8.735836
1155.5 8.985688
1156 8.77526
1156.5 8.919781
1157 8.800806
1157.5 8.928382
1158 8.802327
1158.5 8.912511
1159 8.958577
1159.5 8.887007
1160 8.988252
1160.5 8.817476
1161 9.016749
1161.5 8.803828
1162 9.02982
1162.5 8.848616
1163 8.893891
1163.5 8.873746
1164 8.839674
1164.5 8.950565
1165 8.918141
1165.5 9.013305
1166 8.813237
1166.5 9.041277
1167 8.829988
1167.5 9.078416
1168 8.853139
1168.5 8.989232
1169 8.962477
1169.5 8.991283
1170 8.991897
1170.5 8.958021
1171 9.1187
1171.5 8.94274
1172 9.016863
1172.5 8.939958
1173 9.044925
1173.5 8.974457
1174 9.03364
1174.5 8.984488
1175 8.885858
1175.5 9.081267
1176 8.933986
1176.5 9.080373
1177 8.860078
1177.5 9.125103
1178 8.94774
1178.5 9.142325
1179 9.009657
1179.5 9.036619
1180 9.100231
1180.5 9.074565
1181 9.065881
1181.5 9.015014
1182 9.186649
1182.5 8.991665
1183 9.097765
1183.5 9.055941
1184 9.057202
1184.5 9.136953
1185 9.074593
1185.5 9.137269
1186 8.892162
1186.5 9.16329
1187 8.906115
1187.5 9.119225
1188 8.970838
1188.5 9.100129
1189 8.985052
1189.5 8.972986
1190 8.975826
1190.5 9.011702
1191 9.250233
1191.5 9.112503
1192 9.210476
1192.5 9.225059
1193 9.094855
1193.5 9.256362
1194 9.121569
1194.5 9.275399
1195 9.031142
1195.5 9.267274
1196 9.197852
1196.5 9.224603
1197 9.223086
1197.5 9.145168
1198 9.257234
1198.5 9.126452
1199 9.367828
1199.5 9.046914
1200 9.342054
1200.5 9.136618
1201 9.318409
1201.5 9.20426
1202 9.233141
1202.5 9.264045
1203 9.198261
1203.5 9.313449
1204 9.099312
1204.5 9.367742
1205 9.230892
1205.5 9.404561
1206 9.235296
1206.5 9.363443
1207 9.318252
1207.5 9.261884
1208 9.355911
1208.5 9.219816
1209 9.37534
1209.5 9.19892
1210 9.417816
1210.5 9.223999
1211 9.397188
1211.5 9.32456
1212 9.351009
1212.5 9.355633
1213 9.245019
1213.5 9.411977
1214 9.339549
1214.5 9.434903
1215 9.213511
1215.5 9.49168
1216 9.366237
1216.5 9.449089
1217 9.303959
1217.5 9.405988
1218 9.445818
1218.5 9.360293
1219 9.479803
1219.5 9.339605
1220 9.538327
1220.5 9.419164
1221 9.514709
1221.5 9.394879
1222 9.434363
1222.5 9.483524
1223 9.506797
1223.5 9.463355
1224 9.315027
1224.5 9.54676
1225 9.364197
1225.5 9.529762
1226 9.360082
1226.5 9.52434
1227 9.434607
1227.5 9.597459
1228 9.581151
1228.5 9.543317
1229 9.50973
1229.5 9.468418
1230 9.572502
1230.5 9.510183
1231 9.570816
1231.5 9.511064
1232 9.645553
1232.5 9.548249
1233 9.434693
1233.5 9.596325
1234 9.532158
1234.5 9.650826
1235 9.421686
1235.5 9.698253
1236 9.422872
1236.5 9.67216
1237 9.532818
1237.5 9.594806
1238 9.566318
1238.5 9.575969
1239 9.585136
1239.5 9.468614
1240 9.65958
1240.5 9.408202
1241 9.770322
1241.5 9.557244
1242 9.641961
1242.5 9.685377
1243 9.724328
1243.5 9.772642
1244 9.516579
1244.5 9.767962
1245 9.594043
1245.5 9.777649
1246 9.570352
1246.5 9.777896
1247 9.652521
1247.5 9.79107
1248 9.667742
1248.5 9.685556
1249 9.739312
1249.5 9.616475
1250 9.796733
1250.5 9.716323
1251 9.812707
1251.5 9.648168
1252 9.849773
1252.5 9.760036
1253 9.675806
1253.5 9.777938
1254 9.701596
1254.5 9.865958
1255 9.655254
1255.5 9.788384
1256 9.601624
1256.5 9.739419
1257 9.7165
1257.5 9.806199
1258 9.82869
1258.5 9.756669
1259 9.90674
1259.5 9.796009
1260 9.84912
1260.5 9.672888
1261 9.911362
1261.5 9.829251
1262 9.953532
1262.5 9.829289
1263 9.891734
1263.5 9.85509
1264 9.88906
1264.5 9.954747
1265 9.787185
1265.5 9.993207
1266 9.854328
1266.5 9.938478
1267 9.806948
1267.5 9.886875
1268 9.87946
1268.5 9.922888
1269 9.892553
1269.5 9.834253
1270 10.067034
1270.5 9.793875
1271 9.998129
1271.5 9.754819
1272 9.942028
1272.5 9.873113
1273 10.044472
1273.5 9.981624
1274 9.950957
1274.5 10.033394
1275 9.982649
1275.5 10.094658
1276 9.931785
1276.5 10.072685
1277 9.960999
1277.5 10.03748
1278 10.023888
1278.5 9.964229
1279 10.015995
1279.5 9.974135
1280 10.028312
1280.5 9.833489
1281 10.102213
1281.5 9.80288
1282 10.092806
1282.5 9.968674
1283 10.081883
1283.5 10.012791
1284 10.143027
1284.5 10.069758
1285 10.009723
1285.5 10.082009
1286 9.971379
1286.5 10.239143
1287 10.079841
1287.5 10.241929
1288 10.136725
1288.5 10.182969
1289 10.063499
1289.5 10.024822
1290 10.171405
1290.5 10.040998
1291 10.236184
1291.5 9.995499
1292 10.184852
1292.5 9.994669
1293 10.230719
1293.5 10.128818
1294 10.16857
1294.5 10.133883
1295 10.071219
1295.5 10.254714
1296 10.087984
1296.5 10.207998
1297 10.081292
1297.5 10.276898
1298 10.147208
1298.5 10.312248
1299 10.213485
1299.5 10.194089
1300 10.339898
1300.5 10.17762
1301 10.305453
1301.5 10.135709
1302 10.349512
1302.5 10.1418
1303 10.275138
1303.5 10.263681
1304 10.246167
1304.5 10.359414
1305 10.267887
1305.5 10.387918
1306 10.170833
1306.5 10.40629
1307 10.20114
1307.5 10.350651
1308 10.239892
1308.5 10.397974
1309 10.307949
1309.5 10.283886
1310 10.388882
1310.5 10.33285
1311 10.399787
1311.5 10.261197
1312 10.378399
1312.5 10.27346
1313 10.333594
1313.5 10.316379
1314 10.330651
1314.5 10.347942
1315 10.204087
1315.5 10.386265
1316 10.326565
1316.5 10.444257
1317 10.205401
1317.5 10.476224
1318 10.293323
1318.5 10.491955
1319 10.374437
1319.5 10.43552
1320 10.495362
1320.5 10.423999
1321 10.495495
1321.5 10.373201
1322 10.545885
1322.5 10.389422
1323 10.513853
1323.5 10.419177
1324 10.389522
1324.5 10.524844
1325 10.458304
1325.5 10.502296
1326 10.345851
1326.5 10.484691
1327 10.304329
1327.5 10.588675
1328 10.327426
1328.5 10.550853
1329 10.443279
1329.5 10.613415
1330 10.575194
1330.5 10.526281
1331 10.590754
1331.5 10.423675
1332 10.690408
1332.5 10.523611
1333 10.626799
1333.5 10.542206
1334 10.644188
1334.5 10.632985
1335 10.56881
1335.5 10.710301
1336 10.589294
1336.5 10.7007
1337 10.573782
1337.5 10.800809
1338 10.584496
1338.5 10.862432
1339 10.599827
1339.5 10.682353
1340 10.592951
1340.5 10.517783
1341 10.698564
1341.5 10.618398
1342 10.721996
1342.5 10.547806
1343 10.823727
1343.5 10.654322
1344 10.774483
1344.5 10.711477
1345 10.692959
1345.5 10.687848
1346 10.567298
1346.5 10.800583
1347 10.521907
1347.5 10.857444
1348 10.805086
1348.5 10.870799
1349 10.614526
1349.5 10.638655
1350 10.791031
1350.5 10.775796
1351 10.811429
1351.5 10.563957
1352 10.845679
1352.5 10.760103
1353 10.844973
1353.5 10.585655
1354 10.741305
1354.5 10.839626
1355 10.956372
1355.5 10.995689
1356 10.724056
1356.5 10.902347
1357 10.822582
1357.5 10.956389
1358 10.686307
1358.5 10.785841
1359 10.767023
1359.5 10.991234
1360 10.729038
1360.5 10.526974
1361 10.731041
1361.5 10.944053
1362 11.057916
1362.5 11.151412
1363 10.957841
1363.5 10.563475
1364 10.804298
1364.5 10.971548
1365 11.186397
1365.5 11.019702
1366 10.904437
1366.5 10.798746
1367 10.7675
1367.5 11.100794
1368 10.998553
1368.5 11.19352
1369 10.852626
1369.5 10.797461
1370 10.865242
1370.5 11.035652
1371 11.126385
1371.5 10.999494
1372 11.266031
1372.5 10.923018
1373 11.016037
1373.5 10.772389
1374 11.009607
1374.5 10.914663
1375 11.079756
1375.5 11.004387
1376 11.082312
1376.5 11.201951
1377 11.039782
1377.5 10.993687
1378 10.97261
1378.5 11.364047
1379 11.005515
1379.5 10.933315
1380 10.869382
1380.5 11.180259
1381 11.309788
1381.5 10.821199
1382 11.010804
1382.5 11.129699
1383 11.432097
1383.5 10.921667
1384 11.135942
1384.5 10.984971
1385 11.250211
1385.5 11.298067
1386 11.193286
1386.5 11.12179
1387 10.934687
1387.5 11.130301
1388 11.186256
1388.5 11.374312
1389 11.193039
1389.5 11.284096
1390 11.227845
1390.5 11.17893
1391 11.141153
1391.5 10.971233
1392 11.39322
1392.5 11.406112
1393 11.356736
1393.5 11.07713
1394 11.172222
1394.5 11.01824
1395 11.294883
1395.5 11.332531
1396 11.36453
1396.5 11.557145
1397 11.326765
1397.5 11.381315
1398 11.236501
1398.5 11.26214
1399 11.044323
1399.5 11.215249
1400 11.322237
1400.5 11.451103
1401 11.53688
1401.5 11.47728
1402 11.418749
1402.5 11.305331
1403 11.458644
1403.5 11.131793
1404 11.25421
1404.5 11.350141
1405 11.591683
1405.5 11.313576
1406 11.148208
1406.5 11.441956
1407 11.546971
1407.5 11.531424
1408 11.050674
1408.5 11.420667
1409 11.366
1409.5 11.704427
1410 11.395779
1410.5 11.381377
1411 11.326687
1411.5 11.472075
1412 11.485207
1412.5 11.293557
1413 11.393477
1413.5 11.42718
1414 11.717775
1414.5 11.558564
1415 11.701633
1415.5 11.513097
1416 11.581856
1416.5 11.44627
1417 11.335152
1417.5 11.568471
1418 11.362343
1418.5 11.602186
1419 11.446473
1419.5 11.718252
1420 11.430319
1420.5 11.599053
1421 11.500475
1421.5 11.552829
1422 11.535588
1422.5 11.47491
1423 11.701504
1423.5 11.627423
1424 11.77179
1424.5 11.519241
1425 11.635003
1425.5 11.557902
1426 11.605307
1426.5 11.613094
1427 11.58423
1427.5 11.746522
1428 11.594357
1428.5 11.722559
1429 11.480231
1429.5 11.688697
1430 11.552138
1430.5 11.676456
1431 11.593581
1431.5 11.673168
1432 11.803462
1432.5 11.636895
1433 11.677133
1433.5 11.560871
1434 11.87193
1434.5 11.695562
1435 11.789113
1435.5 11.683571
1436 11.765179
1436.5 11.797529
1437 11.781622
1437.5 11.956297
1438 11.701576
1438.5 11.964266
1439 11.814996
1439.5 11.996841
1440 11.769211
1440.5 11.801477
1441 11.792618
1441.5 11.841398
1442 11.862161
1442.5 11.617174
1443 11.859264
1443.5 11.723596
1444 11.815387
1444.5 11.682241
1445 12.021402
1445.5 12.003557
1446 11.983176
1446.5 11.87419
1447 11.841006
1447.5 11.967503
1448 11.846237
1448.5 11.937059
1449 11.773094
1449.5 12.004982
1450 11.940894
1450.5 12.083242
1451 11.908103
1451.5 11.893463
1452 12.017758
1452.5 11.904134
1453 11.968768
1453.5 11.756592
1454 12.040796
1454.5 11.866472
1455 12.115541
1455.5 11.949544
1456 12.086339
1456.5 11.945269
1457 12.010185
1457.5 12.018576
1458 11.98971
1458.5 12.14057
1459 11.951756
1459.5 12.113092
1460 12.040118
1460.5 12.18027
1461 12.096238
1461.5 12.120533
1462 12.065509
1462.5 12.082542
1463 12.302496
1463.5 12.051968
1464 12.168405
1464.5 11.85521
1465 12.188062
1465.5 11.999039
1466 12.14863
1466.5 12.061703
1467 12.20864
1467.5 12.219446
1468 12.09917
1468.5 12.177408
1469 12.073509
1469.5 12.262725
1470 12.055171
1470.5 12.350623
1471 12.241334
1471.5 12.244306
1472 12.332322
1472.5 12.236712
1473 12.269754
1473.5 12.10163
1474 12.339991
1474.5 12.029979
1475 12.317258
1475.5 12.169196
1476 12.279774
1476.5 12.207603
1477 12.304192
1477.5 12.352644
1478 12.393465
1478.5 12.491911
1479 12.298498
1479.5 12.416793
1480 12.288059
1480.5 12.458543
1481 12.291265
1481.5 12.430268
1482 12.387721
1482.5 12.31363
1483 12.462526
1483.5 12.278441
1484 12.509398
1484.5 12.299092
1485 12.466786
1485.5 12.247881
1486 12.426011
1486.5 12.378383
1487 12.452976
1487.5 12.438672
1488 12.327148
1488.5 12.543257
1489 12.376575
1489.5 12.573391
1490 12.31618
1490.5 12.519781
1491 12.445977
1491.5 12.539032
1492 12.552136
1492.5 12.547001
1493 12.574208
1493.5 12.527402
1494 12.629481
1494.5 12.470827
1495 12.682039
1495.5 12.620643
1496 12.720078
1496.5 12.64759
1497 12.495667
1497.5 12.613586
1498 12.576777
1498.5 12.581168
1499 12.383951
1499.5 12.690119
1500 12.470983
1500.5 12.65177
1501 12.457608
1501.5 12.668058
1502 12.593424
1502.5 12.646881
1503 12.684412
1503.5 12.595581
1504 12.773789
1504.5 12.633032
1505 12.775497
1505.5 12.616591
1506 12.745655
1506.5 12.681226
1507 12.809397
1507.5 12.696581
1508 12.694612
1508.5 12.865724
1509 12.795706
1509.5 12.91032
1510 12.693298
1510.5 12.904187
1511 12.527274
1511.5 12.825948
1512 12.659927
1512.5 12.79795
1513 12.791692
1513.5 12.743638
1514 12.84029
1514.5 12.73993
1515 12.920713
1515.5 12.74996
1516 12.894768
1516.5 12.803032
1517 12.85996
1517.5 12.896979
1518 12.882459
1518.5 12.950164
1519 12.812833
1519.5 13.045213
1520 12.849224
1520.5 13.071188
1521 12.885748
1521.5 13.074657
1522 12.963642
1522.5 12.923986
1523 12.917374
1523.5 12.944445
1524 12.980437
1524.5 12.760641
1525 13.02121
1525.5 12.883916
1526 13.082594
1526.5 12.915371
1527 13.051346
1527.5 12.977859
1528 13.01312
1528.5 13.066486
1529 12.982576
1529.5 13.131291
1530 12.952146
1530.5 13.099335
1531 12.999819
1531.5 13.15987
1532 13.108052
1532.5 13.193859
1533 13.165303
1533.5 13.114664
1534 13.17414
1534.5 13.084795
1535 13.175139
1535.5 12.917258
1536 13.173687
1536.5 13.120148
1537 13.156906
1537.5 13.068002
1538 13.170809
1538.5 13.198185
1539 13.142504
1539.5 13.309193
1540 13.153103
1540.5 13.281827
1541 13.163242
1541.5 13.340272
1542 13.169904
1542.5 13.282113
1543 13.332033
1543.5 13.283105
1544 13.243394
1544.5 13.088758
1545 13.324533
1545.5 13.150792
1546 13.333699
1546.5 13.120483
1547 13.298035
1547.5 13.235179
1548 13.416369
1548.5 13.308889
1549 13.282013
1549.5 13.35177
1550 13.279676
1550.5 13.394186
1551 13.328579
1551.5 13.436051
1552 13.349466
1552.5 13.438499
1553 13.39851
1553.5 13.418181
1554 13.593943
1554.5 13.480838
1555 13.552496
1555.5 13.406348
1556 13.570829
1556.5 13.253735
1557 13.519147
1557.5 13.341747
1558 13.492388
1558.5 13.401239
1559 13.39995
1559.5 13.487455
1560 13.426833
1560.5 13.544369
1561 13.380782
1561.5 13.641791
1562 13.507812
1562.5 13.604414
1563 13.525651
1563.5 13.61568
1564 13.640988
1564.5 13.531435
1565 13.691153
1565.5 13.586664
1566 13.766365
1566.5 13.455355
1567 13.627769
1567.5 13.439114
1568 13.616374
1568.5 13.547036
1569 13.62509
1569.5 13.63811
1570 13.505752
1570.5 13.679512
1571 13.588479
1571.5 13.745496
1572 13.543426
1572.5 13.803443
1573 13.653857
1573.5 13.739325
1574 13.787568
1574.5 13.734458
1575 13.9336
1575.5 13.744228
1576 13.906139
1576.5 13.59646
1577 13.854337
1577.5 13.682453
1578 13.778862
1578.5 13.690564
1579 13.698806
1579.5 13.84055
1580 13.782409
1580.5 13.849823
1581 13.666648
1581.5 13.925602
1582 13.708988
1582.5 13.926068
1583 13.752374
1583.5 13.957968
1584 13.841152
1584.5 13.934672
1585 13.956988
1585.5 13.878392
1586 14.115348
1586.5 13.980125
1587 13.961707
1587.5 13.81398
1588 14.006259
1588.5 13.89195
1589 13.961135
1589.5 13.951321
1590 13.840191
1590.5 13.990827
1591 13.907672
1591.5 13.988349
1592 13.749714
1592.5 14.063267
1593 13.827437
1593.5 14.051586
1594 13.934103
1594.5 13.996214
1595 14.031728
1595.5 14.058331
1596 14.168857
1596.5 13.999568
1597 14.271349
1597.5 13.991319
1598 14.285654
1598.5 14.134817
1599 14.238936
1599.5 14.117734
1600 14.111722
1600.5 14.13509
1601 14.015394
1601.5 14.185733
1602 13.981059
1602.5 14.207077
1603 13.944776
1603.5 14.1664
1604 14.07491
1604.5 14.191282
1605 14.235006
1605.5 14.189428
1606 14.308129
1606.5 14.150901
1607 14.372161
1607.5 14.273068
1608 14.414971
1608.5 14.214858
1609 14.312071
1609.5 14.274119
1610 14.214084
1610.5 14.339843
1611 14.205849
1611.5 14.395484
1612 14.17419
1612.5 14.36822
1613 14.122093
1613.5 14.415434
1614 14.214054
1614.5 14.331211
1615 14.348891
1615.5 14.294343
1616 14.472587
1616.5 14.322627
1617 14.466467
1617.5 14.298831
1618 14.555822
1618.5 14.468786
1619 14.566799
1619.5 14.442237
1620 14.370809
1620.5 14.450002
1621 14.353767
1621.5 14.486021
1622 14.294711
1622.5 14.486369
1623 14.36995
1623.5 14.516313
1624 14.374755
1624.5 14.476897
1625 14.536662
1625.5 14.471975
1626 14.595187
1626.5 14.38604
1627 14.661929
1627.5 14.602764
1628 14.699851
1628.5 14.487559
1629 14.628409
1629.5 14.524639
1630 14.610387
1630.5 14.576758
1631 14.584273
1631.5 14.710119
1632 14.570735
1632.5 14.743891
1633 14.616698
1633.5 14.708166
1634 14.597671
1634.5 14.742556
1635 14.654414
1635.5 14.642008
1636 14.745274
1636.5 14.698173
1637 14.72673
1637.5 14.563379
1638 14.784713
1638.5 14.610599
1639 14.771959
1639.5 14.642516
1640 14.782146
1640.5 14.816511
1641 14.86818
1641.5 14.883921
1642 14.790061
1642.5 14.873758
1643 14.670771
1643.5 14.892448
1644 14.79703
1644.5 14.895752
1645 14.843269
1645.5 14.898574
1646 14.851524
1646.5 14.748527
1647 14.906038
1647.5 14.756432
1648 14.957489
1648.5 14.722493
1649 14.939366
1649.5 14.746825
1650 14.996566
1650.5 14.897159
1651 14.881375
1651.5 14.92268
1652 14.7928
1652.5 15.044872
1653 14.890984
1653.5 15.052998
1654 14.937355
1654.5 15.075348
1655 15.05118
1655.5 14.986169
1656 15.145625
1656.5 15.01729
1657 15.233566
1657.5 15.029293
1658 15.18674
1658.5 14.819206
1659 15.113181
1659.5 14.953405
1660 15.080519
1660.5 15.033683
1661 14.989531
1661.5 15.089537
1662 15.056685
1662.5 15.167695
1663 14.951652
1663.5 15.199777
1664 15.135044
1664.5 15.246157
1665 15.144612
1665.5 15.244436
1666 15.261221
1666.5 15.065938
1667 15.224777
1667.5 15.030187
1668 15.172713
1668.5 15.046996
1669 15.140106
1669.5 14.920734
1670 15.068457
1670.5 15.176617
1671 15.293847
1671.5 15.091062
1672 15.264994
1672.5 15.098503
1673 15.215439
1673.5 15.254922
1674 15.251958
1674.5 15.353239
1675 15.138312
1675.5 15.431279
1676 15.364221
1676.5 15.514033
1677 15.316625
1677.5 15.33179
1678 15.27199
1678.5 15.324903
1679 15.373512
1679.5 15.246494
1680 15.49006
1680.5 15.331617
1681 15.490025
1681.5 15.327042
1682 15.549435
1682.5 15.329939
1683 15.360931
1683.5 15.334155
1684 15.232702
1684.5 15.505363
1685 15.382276
1685.5 15.525743
1686 15.304409
1686.5 15.531874
1687 15.457365
1687.5 15.622671
1688 15.465353
1688.5 15.519512
1689 15.492085
1689.5 15.492508
1690 15.584891
1690.5 15.443839
1691 15.58935
1691.5 15.472363
1692 15.596502
1692.5 15.523724
1693 15.585372
1693.5 15.679608
1694 15.655544
1694.5 15.68134
1695 15.42726
1695.5 15.60874
1696 15.487845
1696.5 15.645996
1697 15.390413
1697.5 15.615721
1698 15.509368
1698.5 15.66668
1699 15.618628
1699.5 15.676171
1700 15.665197
1700.5 15.579727
1701 15.7796
1701.5 15.668836
1702 15.834716
1702.5 15.712593
1703 15.898879
1703.5 15.784694
1704 15.813339
1704.5 15.77999
1705 15.710807
1705.5 15.820113
1706 15.610783
1706.5 15.816474
1707 15.526095
1707.5 15.858532
1708 15.738741
1708.5 15.872267
1709 15.766557
1709.5 15.800869
1710 15.837827
1710.5 15.807661
1711 15.909347
1711.5 15.776804
1712 15.99151
1712.5 15.892278
1713 16.07866
1713.5 15.939209
1714 16.00837
1714.5 15.996793
1715 15.781754
1715.5 15.975477
1716 15.820678
1716.5 16.076998
1717 15.878431
1717.5 16.025285
1718 15.779512
1718.5 16.043916
1719 15.953992
1719.5 15.985771
1720 15.951598
1720.5 15.898883
1721 16.062909
1721.5 16.008683
1722 16.125345
1722.5 15.937263
1723 16.124891
1723.5 15.969573
1724 16.114236
1724.5 16.082327
1725 16.106158
1725.5 16.18018
1726 16.11104
1726.5 16.222033
1727 16.02931
1727.5 16.230905
1728 16.084419
1728.5 16.203859
1729 16.035855
1729.5 16.189793
1730 16.209608
1730.5 16.230202
1731 16.291901
1731.5 16.102894
1732 16.40358
1732.5 16.225791
1733 16.431303
1733.5 16.246404
1734 16.425169
1734.5 16.180323
1735 16.3156
1735.5 16.271755
1736 16.292511
1736.5 16.339283
1737 16.224332
1737.5 16.388197
1738 16.217142
1738.5 16.450509
1739 16.293788
1739.5 16.382478
1740 16.304426
1740.5 16.251469
1741 16.341963
1741.5 16.310887
1742 16.473435
1742.5 16.219716
1743 16.459644
1743.5 16.200094
1744 16.505483
1744.5 16.265514
1745 16.420145
1745.5 16.405268
1746 16.477163
1746.5 16.524164
1747 16.434887
1747.5 16.599555
1748 16.40944
1748.5 16.642447
1749 16.484416
1749.5 16.575597
1750 16.508202
1750.5 16.518515
1751 16.57989
1751.5 16.517137
1752 16.625702
1752.5 16.460036
1753 16.634576
1753.5 16.452435
1754 16.673636
1754.5 16.504063
1755 16.699147
1755.5 16.629869
1756 16.728541
1756.5 16.702877
1757 16.508299
1757.5 16.821034
1758 16.615471
1758.5 16.745919
1759 16.591597
1759.5 16.830637
1760 16.596451
1760.5 16.791438
1761 16.714425
1761.5 16.687913
1762 16.780649
1762.5 16.631621
1763 16.856222
1763.5 16.671321
1764 16.872215
1764.5 16.771203
1765 16.803274
1765.5 16.750678
1766 16.76542
1766.5 16.858031
1767 16.802916
1767.5 16.877824
1768 16.739419
1768.5 16.978963
1769 16.814348
1769.5 16.965565
1770 16.852264
1770.5 17.009866
1771 16.864248
1771.5 16.957554
1772 16.941543
1772.5 16.872275
1773 16.978963
1773.5 16.882768
1774 17.021966
1774.5 16.795532
1775 16.943301
1775.5 16.83881
1776 16.963524
1776.5 16.829215
1777 16.835351
1777.5 16.985995
1778 16.933191
1778.5 17.026328
1779 16.911207
1779.5 17.16035
1780 16.959259
1780.5 17.159647
1781 16.977391
1781.5 17.159092
1782 17.158833
1782.5 17.106782
1783 17.1379
1783.5 17.048545
1784 17.209479
1784.5 17.031859
1785 17.274892
1785.5 17.112617
1786 17.270719
1786.5 17.184371
1787 17.268208
1787.5 17.207599
1788 17.163467
1788.5 17.294426
1789 17.104211
1789.5 17.363325
1790 17.073378
1790.5 17.283805
1791 17.20372
1791.5 17.317937
1792 17.316221
1792.5 17.284355
1793 17.375399
1793.5 17.225036
1794 17.462729
1794.5 17.317505
1795 17.462806
1795.5 17.31786
1796 17.476964
1796.5 17.355485
1797 17.405003
1797.5 17.358303
1798 17.284584
1798.5 17.387776
1799 17.191768
1799.5 17.475796
1800 17.302148
1800.5 17.470157
1801 17.356384
1801.5 17.597024
1802 17.513065
1802.5 17.439915
1803 17.536843
1803.5 17.483644
1804 17.597753
1804.5 17.255144
1805 17.524986
1805.5 17.521337
1806 17.701674
1806.5 17.453699
1807 17.566755
1807.5 17.473829
1808 17.454828
1808.5 17.495678
1809 17.484689
1809.5 17.607412
1810 17.480162
1810.5 17.636929
1811 17.54362
1811.5 17.72
1812 17.638604
1812.5 17.743284
1813 17.691128
1813.5 17.559944
1814 17.574167
1814.5 17.566438
1815 17.831528
1815.5 17.678662
1816 17.905474
1816.5 17.504478
1817 17.720127
1817.5 17.67647
1818 17.733221
1818.5 17.675798
1819 17.638087
1819.5 17.569365
1820 17.713019
1820.5 17.940857
1821 17.810571
1821.5 17.966796
1822 17.867264
1822.5 17.992862
1823 17.908667
1823.5 17.873217
1824 17.823268
1824.5 17.638008
1825 17.802626
1825.5 17.636095
1826 18.058585
1826.5 17.840996
1827 18.012497
1827.5 17.725806
1828 17.94962
1828.5 17.877208
1829 17.866522
1829.5 17.840672
1830 17.764311
1830.5 18.098402
1831 18.029624
1831.5 18.244618
1832 18.058953
1832.5 18.203275
1833 17.995852
1833.5 17.933741
1834 17.952442
1834.5 17.798729
1835 18.117003
1835.5 17.915846
1836 18.085338
1836.5 17.934458
1837 18.218759
1837.5 18.137024
1838 18.197608
1838.5 17.956169
1839 17.965774
1839.5 18.092856
1840 17.933543
1840.5 18.010645
1841 17.882934
1841.5 18.275045
1842 18.219464
1842.5 18.461855
1843 18.263899
1843.5 18.404929
1844 18.318503
1844.5 18.243437
1845 18.246795
1845.5 17.938939
1846 18.041143
1846.5 18.076383
1847 18.218425
1847.5 18.197688
1848 18.430921
1848.5 18.431897
1849 18.404526
1849.5 18.426907
1850 18.278769
1850.5 18.527181
1851 18.308541
1851.5 18.314902
1852 17.966674
1852.5 18.270764
1853 18.237595
1853.5 18.550435
1854 18.482764
1854.5 18.504211
1855 18.35636
1855.5 18.264318
1856 18.47567
1856.5 18.491761
1857 18.686664
1857.5 18.459648
1858 18.383558
1858.5 18.149172
1859 18.290457
1859.5 18.642043
1860 18.61718
1860.5 18.71646
1861 18.505681
1861.5 18.712828
1862 18.372916
1862.5 18.533652
1863 18.292132
1863.5 18.557934
1864 18.608867
1864.5 18.781734
1865 18.71763
1865.5 18.587188
1866 18.549003
1866.5 18.379608
1867 18.568824
1867.5 18.5674
1868 18.881632
1868.5 18.695456
1869 18.620831
1869.5 18.497583
1870 18.516153
1870.5 18.77064
1871 18.545957
1871.5 18.720958
1872 18.500261
1872.5 18.739119
1873 18.619998
1873.5 18.928768
1874 18.740135
1874.5 18.74301
1875 18.607605
1875.5 18.55181
1876 18.710309
1876.5 18.755174
1877 19.005176
1877.5 18.801622
1878 19.018494
1878.5 18.785185
1879 18.809691
1879.5 18.733741
1880 18.881649
1880.5 18.926513
1881 18.92017
1881.5 18.984395
1882 18.734452
1882.5 18.897399
1883 18.619128
1883.5 18.891552
1884 18.917461
1884.5 19.016016
1885 18.985504
1885.5 18.956043
1886 19.009203
1886.5 18.875541
1887 19.136308
1887.5 18.936987
1888 18.937203
1888.5 18.69864
1889 18.819937
1889.5 18.875663
1890 19.161008
1890.5 19.02936
1891 19.069937
1891.5 19.150268
1892 19.20705
1892.5 19.262895
1893 19.151975
1893.5 19.270162
1894 19.130133
1894.5 19.271947
1895 19.064912
1895.5 19.099799
1896 19.187801
1896.5 19.111581
1897 19.041762
1897.5 18.892993
1898 19.061591
1898.5 18.863264
1899 19.279012
1899.5 19.220059
1900 19.381016
1900.5 19.28951
1901 19.352873
1901.5 19.195545
1902 19.17159
1902.5 19.263417
1903 19.14642
1903.5 19.266795
1904 19.094259
1904.5 19.15817
1905 19.165505
1905.5 19.401935
1906 19.355889
1906.5 19.322871
1907 19.500664
1907.5 19.389158
1908 19.545642
1908.5 19.132736
1909 19.428819
1909.5 19.109569
1910 19.40531
1910.5 19.300696
1911 19.348049
1911.5 19.29297
1912 19.231954
1912.5 19.318983
1913 19.407366
1913.5 19.623064
1914 19.39576
1914.5 19.694032
1915 19.499674
1915.5 19.61716
1916 19.641089
1916.5 19.567598
1917 19.645734
1917.5 19.506113
1918 19.527085
1918.5 19.245933
1919 19.456242
1919.5 19.329314
1920 19.651721
1920.5 19.587529
1921 19.711615
1921.5 19.64123
1922 19.606295
1922.5 19.563386
1923 19.304642
1923.5 19.568337
1924 19.530568
1924.5 19.616581
1925 19.431491
1925.5 19.612905
1926 19.55318
1926.5 19.638969
1927 19.715413
1927.5 19.676033
1928 19.771987
1928.5 19.614272
1929 19.750868
1929.5 19.701344
1930 19.823478
1930.5 19.67999
1931 19.799004
1931.5 19.680187
1932 19.688676
1932.5 19.864202
1933 19.810958
1933.5 19.855227
1934 19.611801
1934.5 19.884813
1935 19.71714
1935.5 19.895345
1936 19.754115
1936.5 19.904169
1937 19.855262
1937.5 19.873357
1938 19.918355
1938.5 19.788197
1939 20.026425
1939.5 19.843493
1940 19.970596
1940.5 19.833526
1941 19.972241
1941.5 19.887668
1942 19.984955
1942.5 19.95175
1943 19.901712
1943.5 19.988222
1944 19.897497
1944.5 20.058523
1945 19.783735
1945.5 20.071781
1946 19.892192
1946.5 20.069619
1947 19.983368
1947.5 20.002146
1948 20.073763
1948.5 19.992912
1949 20.107405
1949.5 20.008221
1950 20.174699
1950.5 19.974987
1951 20.25045
1951.5 20.04578
1952 20.128177
1952.5 20.151702
1953 20.091195
1953.5 20.215398
1954 20.009382
1954.5 20.274633
1955 20.01414
1955.5 20.330256
1956 20.022081
1956.5 20.250578
1957 20.115246
1957.5 20.23862
1958 20.236729
1958.5 20.263061
1959 20.266974
1959.5 20.110214
1960 20.438503
1960.5 20.18528
1961 20.385925
1961.5 20.162264
1962 20.347363
1962.5 20.265354
1963 20.32128
1963.5 20.419455
1964 20.231377
1964.5 20.549548
1965 20.217843
1965.5 20.473526
1966 20.228238
1966.5 20.455763
1967 20.3356
1967.5 20.38627
1968 20.345092
1968.5 20.21787
1969 20.438597
1969.5 20.358776
1970 20.52158
1970.5 20.2975
1971 20.49349
1971.5 20.369741
1972 20.473528
1972.5 20.373785
1973 20.444989
1973.5 20.474553
1974 20.491289
1974.5 20.507851
1975 20.445198
1975.5 20.690194
1976 20.499414
1976.5 20.600514
1977 20.502318
1977.5 20.560825
1978 20.598441
1978.5 20.618737
1979 20.627312
1979.5 20.445853
1980 20.649345
1980.5 20.565292
1981 20.755783
1981.5 20.526962
1982 20.682964
1982.5 20.508011
1983 20.785981
1983.5 20.702069
1984 20.734516
1984.5 20.72376
1985 20.658824
1985.5 20.716022
1986 20.61363
1986.5 20.801322
1987 20.677119
1987.5 20.861287
1988 20.694488
1988.5 20.730451
1989 20.833229
1989.5 20.794269
1990 20.847853
1990.5 20.612918
1991 20.856605
1991.5 20.68419
1992 20.972808
1992.5 20.75474
1993 20.933188
1993.5 20.792152
1994 20.968889
1994.5 20.944621
1995 20.878439
1995.5 21.017306
1996 20.815723
1996.5 21.055599
1997 20.887166
1997.5 21.020913
1998 20.919196
1998.5 21.067205
1999 20.936744
1999.5 20.892948
2000 21.074644
2000.5 20.924681
2001 21.073942
2001.5 20.8295
2002 21.08006
2002.5 20.855109
2003 21.102424
2003.5 21.046472
2004 21.108671
2004.5 21.071106
2005 20.9732
2005.5 21.127236
2006 21.061596
2006.5 21.183281
2007 20.950612
2007.5 21.273188
2008 21.087611
2008.5 21.198785
2009 21.089378
2009.5 21.145298
2010 21.204317
2010.5 21.192257
2011 21.31999
2011.5 21.222143
2012 21.460707
2012.5 21.099417
2013 21.25829
2013.5 21.171688
2014 21.198276
2014.5 21.178789
2015 21.222436
2015.5 21.225038
2016 21.108566
2016.5 21.342191
2017 21.210653
2017.5 21.352078
2018 21.166982
2018.5 21.404974
2019 21.288809
2019.5 21.431725
2020 21.380532
2020.5 21.358806
2021 21.488395
2021.5 21.414751
2022 21.458368
2022.5 21.266343
2023 21.454978
2023.5 21.344569
2024 21.492989
2024.5 21.402486
2025 21.36007
2025.5 21.449466
2026 21.498278
2026.5 21.579841
2027 21.369462
2027.5 21.564418
2028 21.36312
2028.5 21.526882
2029 21.403398
2029.5 21.477452
2030 21.519111
2030.5 21.574602
2031 21.615288
2031.5 21.539867
2032 21.727435
2032.5 21.576607
2033 21.700576
2033.5 21.499096
2034 21.60465
2034.5 21.598943
2035 21.662468
2035.5 21.648774
2036 21.580006
2036.5 21.768802
2037 21.634692
2037.5 21.8032
2038 21.471061
2038.5 21.731006
2039 21.563631
2039.5 21.73761
2040 21.756135
2040.5 21.720664
2041 21.790412
2041.5 21.606973
2042 21.816637
2042.5 21.623781
2043 21.87687
2043.5 21.673942
2044 21.926697
2044.5 21.802436
2045 21.891929
2045.5 21.876791
2046 21.911862
2046.5 22.010252
2047 21.717943
2047.5 21.929525
2048 21.655886
2048.5 21.899982
2049 21.751221
2049.5 21.964009
2050 21.836117
2050.5 21.93564
2051 22.014807
2051.5 22.013775
2052 22.079878
2052.5 21.740635
2053 22.008644
2053.5 21.943338
2054 22.049975
2054.5 21.867187
2055 22.11885
2055.5 22.065222
2056 22.085135
2056.5 22.110844
2057 21.965429
2057.5 22.174832
2058 21.987127
2058.5 22.126815
2059 21.969706
2059.5 22.159778
2060 22.103283
2060.5 22.207423
2061 22.129185
2061.5 21.962431
2062 22.167961
2062.5 22.071019
2063 22.181055
2063.5 21.890275
2064 22.316848
2064.5 22.029787
2065 22.369236
2065.5 22.129448
2066 22.197852
2066.5 22.190556
2067 22.215392
2067.5 22.269043
2068 22.231728
2068.5 22.378166
2069 22.196871
2069.5 22.422062
2070 22.368106
2070.5 22.46442
2071 22.245291
2071.5 22.331063
2072 22.379354
2072.5 22.241029
2073 22.477822
2073.5 22.157763
2074 22.386439
2074.5 22.163796
2075 22.448489
2075.5 22.300488
2076 22.464092
2076.5 22.404279
2077 22.328499
2077.5 22.457613
2078 22.335814
2078.5 22.52426
2079 22.419213
2079.5 22.550975
2080 22.303532
2080.5 22.592291
2081 22.448842
2081.5 22.547446
2082 22.597404
2082.5 22.550504
2083 22.502954
2083.5 22.407745
2084 22.62357
2084.5 22.3884
2085 22.662926
2085.5 22.485965
2086 22.658636
2086.5 22.607867
2087 22.6852
2087.5 22.723569
2088 22.568612
2088.5 22.697923
2089 22.481398
2089.5 22.752175
2090 22.641478
2090.5 22.738221
2091 22.616093
2091.5 22.840974
2092 22.667176
2092.5 22.651082
2093 22.750264
2093.5 22.64456
2094 22.818889
2094.5 22.708985
2095 22.83255
2095.5 22.666542
2096 22.877568
2096.5 22.799087
2097 22.719909
2097.5 22.735113
2098 22.659296
2098.5 22.87043
2099 22.841531
2099.5 22.974095
2100 22.733837
2100.5 22.880463
2101 22.701219
2101.5 22.900832
2102 22.783655
2102.5 22.893192
2103 22.940134
2103.5 22.937709
2104 23.045497
2104.5 22.971097
2105 23.154928
2105.5 22.903477
2106 23.022904
2106.5 22.929677
2107 22.95803
2107.5 23.076735
2108 23.045023
2108.5 23.05425
2109 22.824258
2109.5 23.120937
2110 22.88207
2110.5 23.131865
2111 22.856566
2111.5 23.106167
2112 22.996832
2112.5 23.192123
2113 23.158583
2113.5 23.146339
2114 23.237285
2114.5 23.077816
2115 23.125693
2115.5 23.117085
2116 23.311263
2116.5 23.112124
2117 23.333989
2117.5 23.280536
2118 23.247419
2118.5 23.243076
2119 23.136595
2119.5 23.295993
2120 23.07314
2120.5 23.282908
2121 23.00781
2121.5 23.383367
2122 23.159106
2122.5 23.310715
2123 23.241125
2123.5 23.314044
2124 23.405376
2124.5 23.247887
2125 23.324381
2125.5 23.105294
2126 23.473984
2126.5 23.269282
2127 23.432791
2127.5 23.350871
2128 23.500609
2128.5 23.468938
2129 23.410019
2129.5 23.585445
2130 23.284017
2130.5 23.503035
2131 23.284248
2131.5 23.49392
2132 23.325987
2132.5 23.475334
2133 23.429435
2133.5 23.539925
2134 23.562942
2134.5 23.423573
2135 23.621996
2135.5 23.435386
2136 23.585376
2136.5 23.383136
2137 23.639598
2137.5 23.497163
2138 23.654781
2138.5 23.521896
2139 23.566984
2139.5 23.659591
2140 23.633637
2140.5 23.741736
2141 23.581293
2141.5 23.718983
2142 23.548239
2142.5 23.723574
2143 23.596993
2143.5 23.574005
2144 23.734672
2144.5 23.797214
2145 23.854661
2145.5 23.604853
2146 23.850216
2146.5 23.560564
2147 23.797297
2147.5 23.635651
2148 23.807383
2148.5 23.657112
2149 23.883584
2149.5 23.825721
2150 23.817743
2150.5 23.923838
2151 23.810603
2151.5 24.022943
2152 23.741455
2152.5 23.940185
2153 23.821391
2153.5 23.999801
2154 23.921317
2154.5 23.842417
2155 23.920594
2155.5 23.844418
2156 24.028824
2156.5 23.671474
2157 23.986308
2157.5 23.692992
2158 24.049355
2158.5 23.901883
2159 24.066895
2159.5 23.939161
2160 23.863919
2160.5 24.034293
2161 23.941553
2161.5 24.168038
2162 23.954666
2162.5 24.196491
2163 24.038509
2163.5 24.121639
2164 23.971172
2164.5 24.107504
2165 24.053745
2165.5 23.981017
2166 24.205029
2166.5 24.038488
2167 24.227464
2167.5 24.070802
2168 24.304633
2168.5 24.088454
2169 24.269736
2169.5 24.23324
2170 24.230304
2170.5 24.184225
2171 23.97912
2171.5 24.307181
2172 24.121279
2172.5 24.285363
2173 24.115105
2173.5 24.378832
2174 24.247633
2174.5 24.344699
2175 24.319422
2175.5 24.320184
2176 24.486649
2176.5 24.396762
2177 24.509805
2177.5 24.195124
2178 24.411787
2178.5 24.268611
2179 24.432756
2179.5 24.280177
2180 24.336456
2180.5 24.446984
2181 24.450615
2181.5 24.427214
2182 24.274993
2182.5 24.59466
2183 24.422608
2183.5 24.604821
2184 24.370962
2184.5 24.494678
2185 24.396689
2185.5 24.468887
2186 24.524756
2186.5 24.47626
2187 24.623254
2187.5 24.496952
2188 24.689567
2188.5 24.455306
2189 24.688049
2189.5 24.605341
2190 24.767601
2190.5 24.679905
2191 24.546832
2191.5 24.686645
2192 24.558939
2192.5 24.689816
2193 24.503972
2193.5 24.765174
2194 24.402346
2194.5 24.750741
2195 24.591611
2195.5 24.735205
2196 24.714607
2196.5 24.789613
2197 24.86589
2197.5 24.830058
2198 24.877544
2198.5 24.630129
2199 24.900873
2199.5 24.711493
2200 24.84768
2200.5 24.796535
2201 24.820358
2201.5 24.871573
2202 24.771021
2202.5 24.952683
2203 24.848634
2203.5 25.032181
2204 24.767847
2204.5 24.972935
2205 24.693762
2205.5 24.904594
2206 24.821001
2206.5 24.912675
2207 24.922672
2207.5 24.807744
2208 25.047806
2208.5 24.949299
2209 25.144669
2209.5 24.949159
2210 25.191724
2210.5 25.081575
2211 25.02504
2211.5 25.013942
2212 24.988891
2212.5 25.143835
2213 24.999033
2213.5 25.184909
2214 24.980514
2214.5 25.142938
2215 25.036171
2215.5 25.21359
2216 25.161073
2216.5 25.129393
2217 25.107381
2217.5 25.05078
2218 25.185284
2218.5 24.941181
2219 25.202543
2219.5 25.029519
2220 25.215518
2220.5 25.079989
2221 25.268614
2221.5 25.188914
2222 25.293696
2222.5 25.351965
2223 25.229922
2223.5 25.416222
2224 25.326598
2224.5 25.444376
2225 25.175866
2225.5 25.346756
2226 25.25371
2226.5 25.303102
2227 25.27099
2227.5 25.2296
2228 25.393534
2228.5 25.353736
2229 25.461638
2229.5 25.229663
2230 25.511029
2230.5 25.350317
2231 25.441253
2231.5 25.328633
2232 25.397339
2232.5 25.432137
2233 25.444403
2233.5 25.512642
2234 25.360212
2234.5 25.576255
2235 25.355038
2235.5 25.635919
2236 25.467497
2236.5 25.614688
2237 25.520664
2237.5 25.673488
2238 25.525582
2238.5 25.364858
2239 25.659788
2239.5 25.364822
2240 25.620586
2240.5 25.366876
2241 25.61053
2241.5 25.437012
2242 25.673637
2242.5 25.58997
2243 25.595325
2243.5 25.763896
2244 25.514573
2244.5 25.776589
2245 25.596857
2245.5 25.692052
2246 25.590318
2246.5 25.704226
2247 25.677681
2247.5 25.677514
2248 25.796351
2248.5 25.626165
2249 25.921971
2249.5 25.694835
2250 25.942889
2250.5 25.756547
2251 25.845703
2251.5 25.645292
2252 25.714859
2252.5 25.675732
2253 25.707158
2253.5 25.851631
2254 25.802237
2254.5 25.865003
2255 25.679642
2255.5 25.99813
2256 25.862226
2256.5 26.051757
2257 25.755024
2257.5 25.877517
2258 25.861824
2258.5 25.87676
2259 25.920108
2259.5 25.795457
2260 26.045388
2260.5 25.884655
2261 26.089916
2261.5 25.832239
2262 26.06121
2262.5 26.036671
2263 26.117873
2263.5 25.905883
2264 25.798127
2264.5 25.986594
2265 25.954163
2265.5 26.049495
2266 25.748649
2266.5 26.015818
2267 25.862804
2267.5 26.026079
2268 25.98829
2268.5 26.07584
2269 26.16311
2269.5 26.136008
2270 26.138046
2270.5 25.988549
2271 26.180366
2271.5 25.957513
2272 26.126799
2272.5 26.024938
2273 26.127023
2273.5 26.146027
2274 26.130566
2274.5 26.216674
2275 26.109266
2275.5 26.284897
2276 25.997642
2276.5 26.293463
2277 25.985897
2277.5 26.239005
2278 26.072466
2278.5 26.177412
2279 26.1592
2279.5 26.158476
2280 26.262861
2280.5 26.125032
2281 26.340723
2281.5 26.242477
2282 26.442173
2282.5 26.222742
2283 26.529562
2283.5 26.285678
2284 26.270509
2284.5 26.34066
2285 26.235038
2285.5 26.470381
2286 26.132509
2286.5 26.403573
2287 26.204517
2287.5 26.425073
2288 26.234439
2288.5 26.451254
2289 26.315141
2289.5 26.309022
2290 26.411533
2290.5 26.370925
2291 26.489025
2291.5 26.252425
2292 26.612335
2292.5 26.445049
2293 26.587898
2293.5 26.435184
2294 26.560402
2294.5 26.486742
2295 26.458523
2295.5 26.622304
2296 26.429081
2296.5 26.693258
2297 26.417732
2297.5 26.583681
2298 26.423615
2298.5 26.587829
2299 26.505169
2299.5 26.567677
2300 26.618496
2300.5 26.444703
2301 26.69588
2301.5 26.552451
2302 26.755363
2302.5 26.481819
2303 26.838762
2303.5 26.690567
2304 26.756501
2304.5 26.649335
2305 26.654422
2305.5 26.702881
2306 26.68502
2306.5 26.852977
2307 26.591766
2307.5 26.871395
2308 26.682413
2308.5 26.837209
2309 26.719314
2309.5 26.757556
2310 26.88494
2310.5 26.915333
2311 26.916125
2311.5 26.75702
2312 26.937142
2312.5 26.655546
2313 26.922467
2313.5 26.657477
2314 26.933849
2314.5 26.820186
2315 26.957732
2315.5 26.904175
2316 26.820052
2316.5 27.00938
2317 26.813897
2317.5 27.138802
2318 26.826623
2318.5 27.049297
2319 26.919615
2319.5 27.106491
2320 27.066684
2320.5 26.991528
2321 27.186644
2321.5 27.014309
2322 27.203146
2322.5 26.943797
2323 27.092695
2323.5 26.874489
2324 27.167085
2324.5 26.986593
2325 27.080423
2325.5 27.054957
2326 27.071148
2326.5 27.178434
2327 27.061495
2327.5 27.222189
2328 26.981658
2328.5 27.359921
2329 27.190769
2329.5 27.321827
2330 27.207476
2330.5 27.389035
2331 27.34479
2331.5 27.224866
2332 27.40517
2332.5 27.189729
2333 27.376646
2333.5 27.154377
2334 27.382436
2334.5 27.186653
2335 27.29311
2335.5 27.27052
2336 27.294129
2336.5 27.330181
2337 27.220738
2337.5 27.477935
2338 27.356052
2338.5 27.544105
2339 27.298099
2339.5 27.552906
2340 27.483705
2340.5 27.546063
2341 27.54229
2341.5 27.371508
2342 27.511767
2342.5 27.429771
2343 27.622923
2343.5 27.325103
2344 27.612311
2344.5 27.479267
2345 27.494323
2345.5 27.451125
2346 27.459565
2346.5 27.632493
2347 27.580091
2347.5 27.662376
2348 27.362862
2348.5 27.745959
2349 27.542907
2349.5 27.728426
2350 27.577767
2350.5 27.708247
2351 27.603021
2351.5 27.696407
2352 27.635783
2352.5 27.606136
2353 27.751821
2353.5 27.614832
2354 27.830508
2354.5 27.669582
2355 27.768999
2355.5 27.639011
2356 27.804208
2356.5 27.735898
2357 27.728936
2357.5 27.859372
2358 27.809802
2358.5 28.015733
2359 27.710831
2359.5 27.872068
2360 27.631956
2360.5 27.875754
2361 27.721378
2361.5 27.872914
2362 27.835193
2362.5 27.778319
2363 27.935064
2363.5 27.804303
2364 28.053147
2364.5 27.837387
2365 27.984342
2365.5 27.977902
2366 28.030014
2366.5 27.979437
2367 28.016263
2367.5 28.17941
2368 27.984473
2368.5 28.122348
2369 27.78405
2369.5 28.109407
2370 27.837798
2370.5 28.094783
2371 27.906692
2371.5 28.083196
2372 28.028437
2372.5 28.001827
2373 28.140271
2373.5 27.944416
2374 28.230175
2374.5 28.161347
2375 28.212509
2375.5 28.151846
2376 28.320023
2376.5 28.090969
2377 28.119275
2377.5 28.153148
2378 28.085521
2378.5 28.301302
2379 28.124112
2379.5 28.317961
2380 28.080848
2380.5 28.344354
2381 28.190479
2381.5 28.335792
2382 28.201342
2382.5 28.212944
2383 28.384534
2383.5 28.396195
2384 28.458688
2384.5 28.100452
2385 28.366733
2385.5 28.261632
2386 28.427523
2386.5 28.285527
2387 28.435716
2387.5 28.375807
2388 28.401032
2388.5 28.509605
2389 28.404668
2389.5 28.614447
2390 28.320077
2390.5 28.525481
2391 28.389895
2391.5 28.513438
2392 28.45127
2392.5 28.482461
2393 28.425232
2393.5 28.335556
2394 28.575793
2394.5 28.444213
2395 28.601176
2395.5 28.309637
2396 28.680295
2396.5 28.479248
2397 28.658819
2397.5 28.615808
2398 28.684989
2398.5 28.679425
2399 28.57281
2399.5 28.683919
2400 28.574011
2400.5 28.779894
2401 28.559467
2401.5 28.800005
2402 28.630984
2402.5 28.705934
2403 28.684056
2403.5 28.777364
2404 28.784293
2404.5 28.53241
2405 28.719771
2405.5 28.536946
2406 28.797352
2406.5 28.625929
2407 28.862569
2407.5 28.732803
2408 28.833991
2408.5 28.810701
2409 28.793597
2409.5 28.917331
2410 28.723359
2410.5 29.017711
2411 28.859624
2411.5 28.961945
2412 28.733382
2412.5 28.928196
2413 28.879806
2413.5 28.781667
2414 28.883719
2414.5 28.836185
2415 29.111779
2415.5 28.892437
2416 29.120782
2416.5 28.843939
2417 29.006776
2417.5 28.921458
2418 28.972381
2418.5 28.891253
2419 28.89989
2419.5 29.027599
2420 28.932598
2420.5 29.069313
2421 28.881684
2421.5 29.143235
2422 28.980884
2422.5 29.152474
2423 28.998792
2423.5 29.224223
2424 29.21634
2424.5 29.134166
2425 29.22034
2425.5 29.026473
2426 29.254755
2426.5 29.082894
2427 29.181924
2427.5 29.060227
2428 29.246262
2428.5 29.130113
2429 29.228279
2429.5 29.240504
2430 29.161826
2430.5 29.38512
2431 29.087445
2431.5 29.249239
2432 29.037824
2432.5 29.375929
2433 29.239964
2433.5 29.400337
2434 29.25204
2434.5 29.250005
2435 29.386264
2435.5 29.302099
2436 29.488653
2436.5 29.286054
2437 29.477757
2437.5 29.264978
2438 29.477394
2438.5 29.314062
2439 29.348448
2439.5 29.388395
2440 29.457417
2440.5 29.45613
2441 29.359207
2441.5 29.5885
2442 29.233015
2442.5 29.515782
2443 29.297477
2443.5 29.528672
2444 29.452455
2444.5 29.530296
2445 29.606745
2445.5 29.434869
2446 29.553783
2446.5 29.375085
2447 29.629984
2447.5 29.424644
2448 29.664692
2448.5 29.540685
2449 29.704136
2449.5 29.609576
2450 29.510161
2450.5 29.644492
2451 29.500607
2451.5 29.743859
2452 29.436812
2452.5 29.718816
2453 29.426837
2453.5 29.728848
2454 29.558074
2454.5 29.705438
2455 29.671448
2455.5 29.64631
2456 29.803807
2456.5 29.658273
2457 29.709688
2457.5 29.569146
2458 29.896852
2458.5 29.652825
2459 29.758048
2459.5 29.748586
2460 29.788888
2460.5 29.88812
2461 29.776105
2461.5 29.858047
2462 29.601192
2462.5 29.962984
2463 29.790542
2463.5 29.869813
2464 29.7167
2464.5 29.867825
2465 29.816133
2465.5 29.854473
2466 29.871497
2466.5 29.721406
2467 30.003485
2467.5 29.860207
2468 29.9665
2468.5 29.820162
2469 30.010974
2469.5 29.836407
2470 29.883152
2470.5 29.981726
2471 29.906866
2471.5 30.088589
2472 30.049157
2472.5 30.224037
2473 29.991141
2473.5 30.176973
2474 30.019191
2474.5 30.149093
2475 30.025917
2475.5 30.025753
2476 30.158889
2476.5 30.130216
2477 30.185327
2477.5 29.952636
2478 30.288669
2478.5 29.874411
2479 30.153656
2479.5 30.020818
2480 30.202919
2480.5 30.152604
2481 30.268112
2481.5 30.27201
2482 30.180284
2482.5 30.340728
2483 30.092904
2483.5 30.427247
2484 30.210015
2484.5 30.291501
2485 30.225492
2485.5 30.368751
2486 30.361533
2486.5 30.197394
2487 30.376068
2487.5 30.225813
2488 30.459359
2488.5 30.173787
2489 30.464363
2489.5 30.266684
2490 30.526736
2490.5 30.302158
2491 30.284137
2491.5 30.288765
2492 30.253398
2492.5 30.499586
2493 30.35441
2493.5 30.581406
2494 30.364561
2494.5 30.714631
2495 30.531272
2495.5 30.589935
2496 30.466214
2496.5 30.553034
2497 30.659544
2497.5 30.475444
2498 30.694881
2498.5 30.495936
2499 30.769318
2499.5 30.47117
2500 30.604658
2500.5 30.420309
2501 30.526793
2501.5 30.583861
2502 30.622679
2502.5 30.646771
2503 30.369204
2503.5 30.760369
2504 30.608699
2504.5 30.792373
2505 30.572653
2505.5 30.827457
2506 30.687135
2506.5 30.682117
2507 30.736628
2507.5 30.676386
2508 30.816478
2508.5 30.73647
2509 30.932903
2509.5 30.66268
2510 30.77004
2510.5 30.679786
2511 30.783287
2511.5 30.69396
2512 30.695024
2512.5 30.887896
2513 30.743402
2513.5 30.785891
2514 30.54944
2514.5 30.951726
2515 30.74834
2515.5 30.961776
2516 30.817994
2516.5 31.01992
2517 31.034833
2517.5 31.038418
2518 31.054899
2518.5 30.961519
2519 31.133193
2519.5 30.909491
2520 31.056836
2520.5 30.900136
2521 31.018773
2521.5 30.969894
2522 31.069136
2522.5 31.008613
2523 30.932763
2523.5 31.086105
2524 30.927378
2524.5 31.149125
2525 30.85748
2525.5 31.211689
2526 30.932742
2526.5 31.139678
2527 31.080034
2527.5 31.12092
2528 31.154165
2528.5 30.917212
2529 31.167707
2529.5 31.01598
2530 31.127203
2530.5 30.929199
2531 31.203899
2531.5 31.046695
2532 31.181097
2532.5 31.255701
2533 31.33876
2533.5 31.304199
2534 31.20057
2534.5 31.381288
2535 31.104663
2535.5 31.418285
2536 31.213075
2536.5 31.451651
2537 31.306291
2537.5 31.502175
2538 31.438854
2538.5 31.329703
2539 31.424245
2539.5 31.128505
2540 31.445262
2540.5 31.338322
2541 31.387958
2541.5 31.154501
2542 31.520307
2542.5 31.330994
2543 31.448248
2543.5 31.449217
2544 31.45248
2544.5 31.707433
2545 31.466624
2545.5 31.678292
2546 31.356329
2546.5 31.504038
2547 31.34875
2547.5 31.533122
2548 31.340691
2548.5 31.345496
2549 31.463575
2549.5 31.510872
2550 31.621107
2550.5 31.388786
2551 31.723741
2551.5 31.487787
2552 31.664783
2552.5 31.585217
2553 31.721514
2553.5 31.700134
2554 31.880075
2554.5 31.895357
2555 31.74974
2555.5 31.989583
2556 31.677681
2556.5 31.91618
2557 31.64534
2557.5 31.848836
2558 31.700367
2558.5 31.643537
2559 31.664708
2559.5 31.406072
2560 31.638417
2560.5 31.563231
2561 31.655285
2561.5 31.468609
2562 31.840873
2562.5 31.654444
2563 31.907704
2563.5 31.842327
2564 31.918001
2564.5 31.914046
2565 31.925958
2565.5 32.023561
2566 31.823558
2566.5 32.08344
2567 31.751806
2567.5 32.162255
2568 31.822479
2568.5 31.865662
2569 31.887794
2569.5 31.855565
2570 32.008579
2570.5 31.763479
2571 31.989276
2571.5 31.754267
2572 31.956589
2572.5 31.676942
2573 32.053566
2573.5 31.883377
2574 31.948856
2574.5 32.017604
2575 32.007533
2575.5 32.146677
2576 31.945416
2576.5 32.346612
2577 32.188788
2577.5 32.243496
2578 31.980991
2578.5 32.198703
2579 32.064158
2579.5 32.03027
2580 32.108501
2580.5 32.031929
2581 32.246125
2581.5 32.001457
2582 32.15315
2582.5 31.868985
2583 32.180482
2583.5 32.086331
2584 32.194585
2584.5 32.188973
2585 32.155645
2585.5 32.330716
2586 32.229775
2586.5 32.376555
2587 32.268724
2587.5 32.559794
2588 32.426739
2588.5 32.438746
2589 32.219598
2589.5 32.316324
2590 32.307753
2590.5 32.261845
2591 32.254198
2591.5 32.185522
2592 32.425311
2592.5 32.147309
2593 32.382759
2593.5 32.167539
2594 32.478192
2594.5 32.316101
2595 32.401341
2595.5 32.447323
2596 32.259685
2596.5 32.710519
2597 32.540128
2597.5 32.761052
2598 32.511637
2598.5 32.676926
2599 32.478788
2599.5 32.594576
2600 32.445481
2600.5 32.379392
2601 32.513896
2601.5 32.445347
2602 32.51262
2602.5 32.460162
2603 32.496488
2603.5 32.346615
2604 32.59455
2604.5 32.439557
2605 32.585052
2605.5 32.58076
2606 32.683933
2606.5 32.699797
2607 32.514066
2607.5 32.905662
2608 32.576829
2608.5 32.894254
2609 32.668027
2609.5 33.005303
2610 32.842043
2610.5 32.858965
2611 32.830381
2611.5 32.736781
2612 32.753885
2612.5 32.591867
2613 32.83377
2613.5 32.722837
2614 32.901096
2614.5 32.570177
2615 32.707247
2615.5 32.635131
2616 32.640505
2616.5 32.929525
2617 32.898957
2617.5 33.091062
2618 32.770219
2618.5 33.043537
2619 32.882845
2619.5 33.070552
2620 32.93013
2620.5 33.034804
2621 33.053115
2621.5 32.967466
2622 33.114922
2622.5 33.156249
2623 32.961616
2623.5 33.144945
2624 32.956526
2624.5 33.204892
2625 32.888421
2625.5 32.981393
2626 32.901341
2626.5 33.013627
2627 32.867089
2627.5 32.784447
2628 32.849193
2628.5 32.754233
2629 33.086812
2629.5 32.849482
2630 33.123136
2630.5 33.031765
2631 33.111763
2631.5 33.005592
2632 33.056676
2632.5 33.146891
2633 32.965237
2633.5 33.426565
2634 33.259693
2634.5 33.379516
2635 33.210906
2635.5 33.481625
2636 33.470193
2636.5 33.420804
2637 33.359903
2637.5 33.28979
2638 33.426669
2638.5 33.156922
2639 33.395797
2639.5 33.14867
2640 33.407694
2640.5 33.218244
2641 33.316594
2641.5 33.143106
2642 33.229235
2642.5 33.332053
2643 33.305225
2643.5 33.394304
2644 33.176318
2644.5 33.583975
2645 33.4443
2645.5 33.673263
2646 33.41887
2646.5 33.729047
2647 33.599782
2647.5 33.533227
2648 33.477709
2648.5 33.452165
2649 33.603427
2649.5 33.449152
2650 33.652478
2650.5 33.300695
2651 33.510655
2651.5 33.443075
2652 33.54308
2652.5 33.60914
2653 33.555055
2653.5 33.723849
2654 33.656439
2654.5 33.752677
2655 33.455974
2655.5 33.813342
2656 33.604109
2656.5 33.757243
2657 33.64622
2657.5 33.686006
2658 33.647966
2658.5 33.729827
2659 33.797899
2659.5 33.622235
2660 33.875525
2660.5 33.664045
2661 33.827648
2661.5 33.684754
2662 33.682007
2662.5 33.627853
2663 33.721295
2663.5 33.690652
2664 33.483648
2664.5 33.692652
2665 33.44605
2665.5 33.759883
2666 33.486322
2666.5 33.793423
2667 33.5776
2667.5 33.877087
2668 33.762226
2668.5 33.715478
2669 33.766639
2669.5 33.732677
2670 34.015584
2670.5 33.819109
2671 34.042028
2671.5 33.738002
2672 33.98501
2672.5 33.71335
2673 33.744466
2673.5 33.778206
2674 33.810592
2674.5 33.980295
2675 33.781052
2675.5 34.052008
2676 33.750862
2676.5 34.107271
2677 33.815128
2677.5 33.928913
2678 33.878013
2678.5 33.924785
2679 33.948985
2679.5 33.910182
2680 34.059602
2680.5 33.874223
2681 34.191892
2681.5 34.043536
2682 34.283987
2682.5 34.044644
2683 34.26576
2683.5 34.179088
2684 34.191415
2684.5 34.275275
2685 34.128797
2685.5 34.403804
2686 34.204581
2686.5 34.350932
2687 34.200338
2687.5 34.477353
2688 34.299615
2688.5 34.333244
2689 34.213972
2689.5 34.059048
2690 34.294659
2690.5 34.165618
2691 34.279576
2691.5 33.966747
2692 34.324834
2692.5 34.054884
2693 34.249038
2693.5 34.222218
2694 34.387481
2694.5 34.347785
2695 34.343097
2695.5 34.417444
2696 34.276146
2696.5 34.555158
2697 34.327978
2697.5 34.546465
2698 34.353891
2698.5 34.484106
2699 34.49519
2699.5 34.584355
2700 34.535947
2700.5 34.532732
2701 34.750667
2701.5 34.427771
2702 34.598795
2702.5 34.391272
2703 34.641185
2703.5 34.367046
2704 34.549356
2704.5 34.447914
2705 34.470439
2705.5 34.559917
2706 34.348312
2706.5 34.628758
2707 34.447464
2707.5 34.717178
2708 34.328294
2708.5 34.493905
2709 34.493852
2709.5 34.591752
2710 34.548834
2710.5 34.597728
2711 34.697956
2711.5 34.562528
2712 34.805554
2712.5 34.515947
2713 34.934235
2713.5 34.681025
2714 34.764355
2714.5 34.591752
2715 34.702393
2715.5 34.669128
2716 34.678355
2716.5 34.78446
2717 34.392002
2717.5 34.691402
2718 34.509999
2718.5 34.641597
2719 34.455454
2719.5 34.649536
2720 34.587172
2720.5 34.599817
2721 34.644258
2721.5 34.62626
2722 34.766728
2722.5 34.600997
2723 34.787285
2723.5 34.57309
2724 34.762862
2724.5 34.754652
2725 34.84737
2725.5 34.777856
2726 34.744337
2726.5 34.925601
2727 34.882611
2727.5 35.032263
2728 34.824812
2728.5 35.202479
2729 34.949782
2729.5 34.949952
2730 34.856907
2730.5 35.06611
2731 34.997255
2731.5 34.911948
2732 35.109332
2732.5 34.844816
2733 35.128352
2733.5 34.867454
2734 35.008249
2734.5 34.810725
2735 34.97735
2735.5 34.848925
2736 34.955662
2736.5 34.853509
2737 34.79532
2737.5 34.996778
2738 34.739691
2738.5 34.959966
2739 34.779415
2739.5 35.056707
2740 34.83032
2740.5 35.067517
2741 34.930912
2741.5 34.979287
2742 34.978774
2742.5 34.873313
2743 35.137925
2743.5 35.006779
2744 35.292313
2744.5 35.095626
2745 35.422346
2745.5 35.332814
2746 35.247779
2746.5 35.215878
2747 35.142437
2747.5 35.251281
2748 35.047787
2748.5 35.297081
2749 34.961528
2749.5 35.248369
2750 35.065621
2750.5 35.286388
2751 35.106939
2751.5 35.261035
2752 35.218489
2752.5 35.074478
2753 35.222265
2753.5 35.073841
2754 35.277513
2754.5 35.105062
2755 35.298488
2755.5 35.175809
2756 35.279894
2756.5 35.204679
2757 35.16975
2757.5 35.252565
2758 35.171887
2758.5 35.361451
2759 35.152042
2759.5 35.348624
2760 35.101607
2760.5 35.37614
2761 35.204041
2761.5 35.40791
2762 35.263315
2762.5 35.242787
2763 35.353631
2763.5 35.160872
2764 35.30353
2764.5 35.056213
2765 35.399738
2765.5 35.202593
2766 35.396653
2766.5 35.239694
2767 35.41975
2767.5 35.443437
2768 35.479552
2768.5 35.642681
2769 35.386553
2769.5 35.652825
2770 35.460219
2770.5 35.653543
2771 35.496202
2771.5 35.616601
2772 35.564274
2772.5 35.635594
2773 35.588771
2773.5 35.387945
2774 35.649744
2774.5 35.416558
2775 35.589767
2775.5 35.295796
2776 35.67408
2776.5 35.449743
2777 35.62513
2777.5 35.624397
2778 35.652575
2778.5 35.640484
2779 35.569194
2779.5 35.779667
2780 35.472882
2780.5 35.744989
2781 35.464072
2781.5 35.698405
2782 35.564724
2782.5 35.608593
2783 35.591981
2783.5 35.589352
2784 35.698324
2784.5 35.551578
2785 35.849983
2785.5 35.549212
2786 35.90346
2786.5 35.534605
2787 35.823497
2787.5 35.681748
2788 35.779864
2788.5 35.864243
2789 35.747382
2789.5 35.936874
2790 35.645869
2790.5 36.00097
2791 35.789347
2791.5 36.122468
2792 35.935554
2792.5 36.214563
2793 36.06115
2793.5 35.968
2794 36.010465
2794.5 35.897329
2795 36.037967
2795.5 35.709026
2796 35.997933
2796.5 35.716516
2797 35.987926
2797.5 35.821614
2798 35.908952
2798.5 35.925391
2799 35.791427
2799.5 36.036021
2800 36.024448
##END=
