##TITLE= W6726_5mm_240124
##JCAMP-DX= 4.24
##DATA TYPE= UV/VIS SPECTRUM
##ORIGIN=  Lambda-SPX/P Scan
##OWNER= Optiplex/OPTIPLEX-755
##DATE= 24.01.2024 17:08:59
##SPECTROMETER/DATA SYSTEM= Lambda 19 UV/Vis/NIR
##SAMPLE DESCRIPTION= 240124
##DELTAX= 0.5
##XUNITS= NANOMETERS
##YUNITS= TRANSMITTANCE
$$COMMENT= RTUNITS 0-1
##XFACTOR= 1.0
##YFACTOR= 0.01
##FIRSTX= 190
##LASTX= 2800
##NPOINTS= 5221
##FIRSTY= 0.002549
##MAXY= 0.383057
##MINY= -0.000272
##XYDATA= (XY..XY)
190 0.254895
190.5 0.19471
191 0.152015
191.5 0.152476
192 0.13728
192.5 0.122816
193 0.083863
193.5 0.068744
194 0.053118
194.5 0.04305
195 0.036467
195.5 0.02026
196 0.013849
196.5 0.013693
197 0.008838
197.5 0.005493
198 0.006961
198.5 0.003261
199 0.005851
199.5 0.007859
200 0.004713
200.5 0.002055
201 0.008067
201.5 0.003461
202 0.006569
202.5 0.002632
203 0.000583
203.5 0.00765
204 0.003547
204.5 0.008087
205 -0.003911
205.5 0.01178
206 -0.003927
206.5 0.008373
207 -0.00371
207.5 0.002705
208 0.002768
208.5 0.00485
209 0.004701
209.5 -0.004885
210 0.006353
210.5 -0.001257
211 0.006367
211.5 0.002111
212 0.003635
212.5 0.005645
213 0.004078
213.5 0.005423
214 0.000735
214.5 0.012808
215 0.000735
215.5 0.0096
216 -0.000648
216.5 0.009257
217 -0.000239
217.5 0.006377
218 0.006299
218.5 0.000435
219 0.006683
219.5 -0.00039
220 0.00858
220.5 0.000863
221 0.004538
221.5 -0.000546
222 0.005139
222.5 0.003996
223 0.005073
223.5 0.008211
224 0.001768
224.5 0.006238
225 0.004332
225.5 0.008742
226 0.000817
226.5 0.006364
227 0.003259
227.5 0.003991
228 0.005733
228.5 0.002962
229 0.009713
229.5 0.003424
230 0.006185
230.5 -0.002697
231 0.009454
231.5 0.003533
232 0.006026
232.5 0.001322
233 0.002063
233.5 0.003191
234 0.009706
234.5 0.005801
235 0.002436
235.5 0.006116
236 0.006367
236.5 0.006133
237 0.002809
237.5 0.006828
238 0.004807
238.5 0.006749
239 0.007494
239.5 0.000955
240 0.011099
240.5 0.003155
241 0.010449
241.5 -0.002924
242 0.007658
242.5 -0.00031
243 0.011047
243.5 0.003414
244 -0.00066
244.5 0.007766
245 0.007869
245.5 0.00492
246 -0.000094
246.5 0.006328
247 0.003539
247.5 0.006037
248 0.005047
248.5 0.003383
249 0.009126
249.5 0.004182
250 0.01102
250.5 0.000878
251 0.011675
251.5 -0.000438
252 0.008781
252.5 0.00277
253 0.003412
253.5 0.008103
254 0.006446
254.5 0.007396
255 0.000024
255.5 0.006339
256 0.000903
256.5 0.007568
257 0.004471
257.5 0.003996
258 0.000984
258.5 0.00377
259 0.004062
259.5 0.001106
260 0.006463
260.5 0.001888
261 0.008335
261.5 0.006302
262 0.004906
262.5 0.003746
263 0.007656
263.5 0.004793
264 0.002233
264.5 0.005093
265 0.003558
265.5 0.00888
266 0.006642
266.5 0.005662
267 -0.001322
267.5 0.007974
268 0.001729
268.5 0.006283
269 0.003402
269.5 0.004198
270 0.006727
270.5 0.006399
271 0.004044
271.5 -0.000849
272 0.007308
272.5 0.004316
273 0.003633
273.5 0.004653
274 0.00597
274.5 0.008803
275 0.005083
275.5 0.006551
276 0.000092
276.5 0.012596
277 0.000592
277.5 0.008298
278 -0.001503
278.5 0.005611
279 0.002785
279.5 0.007634
280 0.004726
280.5 0.001396
281 0.00938
281.5 -0.000819
282 0.006673
282.5 0.002744
283 0.005132
283.5 0.004468
284 0.007082
284.5 0.005676
285 0.003867
285.5 0.009629
286 0.001917
286.5 0.01109
287 0.003368
287.5 0.008679
288 0.002208
288.5 0.006541
289 0.00379
289.5 0.003227
290 0.007062
290.5 0.003884
291 0.010044
291.5 0.003721
292 0.006652
292.5 -0.00302
293 0.008293
293.5 0.003979
294 0.004978
294.5 0.005363
295 0.00384
295.5 0.005929
296 0.00803
296.5 0.008171
297 0.00179
297.5 0.006111
298 0.005439
298.5 0.005425
299 0.004919
299.5 0.005521
300 0.008588
300.5 0.004104
301 0.007728
301.5 0.000497
302 0.01102
302.5 0.002035
303 0.008433
303.5 -0.002156
304 0.005424
304.5 0.00389
305 0.010005
305.5 0.005399
306 0.000656
306.5 0.005533
307 0.005645
307.5 0.007816
308 0.002833
308.5 0.008603
309 0.005253
309.5 0.006225
310 0.006854
310.5 0.00322
311 0.011682
311.5 0.004454
312 0.01113
312.5 -0.000578
313 0.010475
313.5 -0.000654
314 0.010402
314.5 0.002506
315 0.003542
315.5 0.005313
316 0.008562
316.5 0.008935
317 -0.000509
317.5 0.007431
318 0.003459
318.5 -0.00035
319 -0.027157
319.5 0.006486
320 0.00683
320.5 0.003081
321 0.009503
321.5 0.009077
322 0.006289
322.5 0.007811
323 0.004115
323.5 0.009685
324 0.008913
324.5 0.014814
325 0.009193
325.5 0.011916
326 0.01104
326.5 0.009897
327 0.014281
327.5 0.008783
328 0.01707
328.5 0.013182
329 0.014865
329.5 0.007409
330 0.018041
330.5 0.012895
331 0.017479
331.5 0.012165
332 0.016435
332.5 0.019183
333 0.024626
333.5 0.020875
334 0.016883
334.5 0.021609
335 0.023511
335.5 0.025392
336 0.024158
336.5 0.028371
337 0.030006
337.5 0.028139
338 0.033308
338.5 0.026297
339 0.041154
339.5 0.033237
340 0.040495
340.5 0.030135
341 0.043624
341.5 0.040613
342 0.048147
342.5 0.046509
343 0.047866
343.5 0.050151
344 0.056103
344.5 0.057969
345 0.053085
345.5 0.0616
346 0.064738
346.5 0.067791
347 0.07118
347.5 0.068147
348 0.07965
348.5 0.078029
349 0.089439
349.5 0.079372
350 0.097831
350.5 0.089085
351 0.102014
351.5 0.097885
352 0.103509
352.5 0.10894
353 0.10905
353.5 0.118985
354 0.112379
354.5 0.127718
355 0.125046
355.5 0.13413
356 0.139513
356.5 0.143096
357 0.142179
357.5 0.149998
358 0.158639
358.5 0.160095
359 0.171394
359.5 0.168703
360 0.185708
360.5 0.182418
361 0.19223
361.5 0.19431
362 0.201846
362.5 0.205954
363 0.211578
363.5 0.218737
364 0.222762
364.5 0.236103
365 0.246382
365.5 0.255382
366 0.255461
366.5 0.276092
367 0.283211
367.5 0.296398
368 0.307778
368.5 0.320834
369 0.337157
369.5 0.359349
370 0.371717
370.5 0.385781
371 0.419973
371.5 0.427176
372 0.458716
372.5 0.479843
373 0.505659
373.5 0.540075
374 0.570101
374.5 0.606669
375 0.6343
375.5 0.689095
376 0.717565
376.5 0.764954
377 0.808178
377.5 0.855537
378 0.918625
378.5 0.987506
379 1.04405
379.5 1.145239
380 1.205192
380.5 1.308515
381 1.373406
381.5 1.483646
382 1.568389
382.5 1.695008
383 1.791861
383.5 1.894835
384 2.04219
384.5 2.164566
385 2.286732
385.5 2.419752
386 2.584703
386.5 2.729961
387 2.889403
387.5 3.037783
388 3.213223
388.5 3.371426
389 3.51598
389.5 3.712523
390 3.819607
390.5 3.969888
391 4.121186
391.5 4.267713
392 4.411412
392.5 4.520139
393 4.623595
393.5 4.711337
394 4.821926
394.5 4.919171
395 4.997228
395.5 5.076666
396 5.131725
396.5 5.176871
397 5.249736
397.5 5.309275
398 5.338646
398.5 5.38607
399 5.449872
399.5 5.465796
400 5.506174
400.5 5.529362
401 5.56047
401.5 5.600902
402 5.654488
402.5 5.648194
403 5.713521
403.5 5.754269
404 5.773151
404.5 5.762111
405 5.854689
405.5 5.890162
406 5.904625
406.5 5.95661
407 5.964033
407.5 6.032303
408 6.055372
408.5 6.06056
409 6.084842
409.5 6.133171
410 6.184076
410.5 6.193936
411 6.223069
411.5 6.246583
412 6.25829
412.5 6.287675
413 6.279498
413.5 6.278962
414 6.309205
414.5 6.305059
415 6.300906
415.5 6.266466
416 6.271923
416.5 6.26255
417 6.24875
417.5 6.21524
418 6.185436
418.5 6.153889
419 6.115199
419.5 6.072348
420 6.007862
420.5 5.957129
421 5.889701
421.5 5.837709
422 5.772841
422.5 5.736667
423 5.651456
423.5 5.574538
424 5.511535
424.5 5.448164
425 5.37115
425.5 5.270797
426 5.223982
426.5 5.12596
427 5.061435
427.5 4.982882
428 4.891709
428.5 4.800006
429 4.711409
429.5 4.660384
430 4.575587
430.5 4.514851
431 4.43719
431.5 4.377313
432 4.287875
432.5 4.246122
433 4.168802
433.5 4.109007
434 4.036405
434.5 3.963761
435 3.89794
435.5 3.837565
436 3.794551
436.5 3.723417
437 3.707688
437.5 3.656301
438 3.593626
438.5 3.547817
439 3.51312
439.5 3.474113
440 3.407069
440.5 3.382105
441 3.340385
441.5 3.332017
442 3.301289
442.5 3.283006
443 3.252675
443.5 3.217673
444 3.212735
444.5 3.197628
445 3.182256
445.5 3.184294
446 3.183593
446.5 3.160253
447 3.135134
447.5 3.137111
448 3.122522
448.5 3.112497
449 3.108685
449.5 3.119956
450 3.105631
450.5 3.112656
451 3.1049
451.5 3.120499
452 3.109757
452.5 3.134676
453 3.129236
453.5 3.162045
454 3.177338
454.5 3.185324
455 3.203914
455.5 3.216373
456 3.243711
456.5 3.256347
457 3.281838
457.5 3.300923
458 3.323659
458.5 3.348302
459 3.38776
459.5 3.41875
460 3.447816
460.5 3.453678
461 3.490431
461.5 3.524197
462 3.557964
462.5 3.600213
463 3.609714
463.5 3.645263
464 3.694166
464.5 3.714886
465 3.734027
465.5 3.770341
466 3.818952
466.5 3.839443
467 3.878421
467.5 3.924887
468 3.936964
468.5 3.985721
469 4.017033
469.5 4.055661
470 4.079922
470.5 4.123156
471 4.158231
471.5 4.190291
472 4.235527
472.5 4.254866
473 4.299943
473.5 4.340029
474 4.385296
474.5 4.409103
475 4.456601
475.5 4.481257
476 4.534512
476.5 4.576237
477 4.618281
477.5 4.648557
478 4.694054
478.5 4.740293
479 4.77341
479.5 4.808155
480 4.844024
480.5 4.889857
481 4.939422
481.5 4.974576
482 5.008727
482.5 5.059659
483 5.100883
483.5 5.144781
484 5.189204
484.5 5.22759
485 5.27216
485.5 5.309783
486 5.34594
486.5 5.377291
487 5.453533
487.5 5.467037
488 5.503445
488.5 5.541523
489 5.584517
489.5 5.630895
490 5.666463
490.5 5.711596
491 5.759371
491.5 5.798202
492 5.814601
492.5 5.876169
493 5.89706
493.5 5.937724
494 5.967869
494.5 6.006441
495 6.032708
495.5 6.071977
496 6.120836
496.5 6.14696
497 6.179155
497.5 6.214471
498 6.269984
498.5 6.292076
499 6.345325
499.5 6.377958
500 6.42078
500.5 6.446824
501 6.492617
501.5 6.526633
502 6.546119
502.5 6.59309
503 6.633841
503.5 6.680425
504 6.72713
504.5 6.75758
505 6.809302
505.5 6.86335
506 6.904218
506.5 6.943348
507 6.973031
507.5 7.031978
508 7.077242
508.5 7.142251
509 7.200853
509.5 7.229286
510 7.311364
510.5 7.359336
511 7.429511
511.5 7.482566
512 7.554761
512.5 7.614426
513 7.672063
513.5 7.735631
514 7.799281
514.5 7.870976
515 7.939335
515.5 8.000103
516 8.049543
516.5 8.126184
517 8.205485
517.5 8.270115
518 8.344206
518.5 8.400478
519 8.467584
519.5 8.547574
520 8.607506
520.5 8.674894
521 8.740704
521.5 8.821952
522 8.881953
522.5 8.943173
523 9.014621
523.5 9.079076
524 9.129048
524.5 9.212751
525 9.252452
525.5 9.328984
526 9.390926
526.5 9.455129
527 9.507995
527.5 9.561805
528 9.636351
528.5 9.668849
529 9.730615
529.5 9.802771
530 9.83679
530.5 9.88064
531 9.936096
531.5 9.984215
532 10.030479
532.5 10.075976
533 10.127144
533.5 10.188773
534 10.205325
534.5 10.276794
535 10.310786
535.5 10.335948
536 10.379899
536.5 10.41133
537 10.459232
537.5 10.476385
538 10.508476
538.5 10.536482
539 10.582627
539.5 10.595533
540 10.633988
540.5 10.66679
541 10.679349
541.5 10.685878
542 10.715055
542.5 10.743743
543 10.74165
543.5 10.764782
544 10.781491
544.5 10.793672
545 10.807475
545.5 10.832012
546 10.821378
546.5 10.849912
547 10.843984
547.5 10.821379
548 10.840426
548.5 10.839483
549 10.854783
549.5 10.845106
550 10.846768
550.5 10.837317
551 10.839457
551.5 10.855493
552 10.821327
552.5 10.817198
553 10.806184
553.5 10.798336
554 10.802646
554.5 10.792967
555 10.773056
555.5 10.75918
556 10.73674
556.5 10.732923
557 10.717118
557.5 10.693738
558 10.673515
558.5 10.679412
559 10.643139
559.5 10.621955
560 10.598223
560.5 10.584871
561 10.581656
561.5 10.535316
562 10.526318
562.5 10.464346
563 10.461259
563.5 10.441037
564 10.392423
564.5 10.393503
565 10.351469
565.5 10.347342
566 10.317077
566.5 10.288307
567 10.258554
567.5 10.24233
568 10.216033
568.5 10.193316
569 10.168127
569.5 10.126699
570 10.097589
570.5 10.076081
571 10.037465
571.5 10.032238
572 9.994176
572.5 9.969723
573 9.925558
573.5 9.915373
574 9.877508
574.5 9.866459
575 9.815185
575.5 9.812211
576 9.781285
576.5 9.750809
577 9.735786
577.5 9.697983
578 9.674224
578.5 9.641333
579 9.625689
579.5 9.598168
580 9.564371
580.5 9.541926
581 9.526953
581.5 9.502265
582 9.463321
582.5 9.445909
583 9.418207
583.5 9.394198
584 9.361436
584.5 9.341364
585 9.309655
585.5 9.300103
586 9.269417
586.5 9.253576
587 9.225592
587.5 9.19386
588 9.192409
588.5 9.178773
589 9.141444
589.5 9.107111
590 9.0988
590.5 9.071837
591 9.045585
591.5 9.036399
592 9.00062
592.5 9.002806
593 8.972402
593.5 8.951978
594 8.924598
594.5 8.911691
595 8.894581
595.5 8.886862
596 8.863766
596.5 8.831473
597 8.829382
597.5 8.80848
598 8.796949
598.5 8.782262
599 8.762421
599.5 8.739214
600 8.729775
600.5 8.703325
601 8.701393
601.5 8.681981
602 8.66406
602.5 8.651262
603 8.633684
603.5 8.633138
604 8.62069
604.5 8.60963
605 8.592578
605.5 8.5669
606 8.560605
606.5 8.561337
607 8.549438
607.5 8.526575
608 8.519606
608.5 8.517499
609 8.498646
609.5 8.46739
610 8.483809
610.5 8.463161
611 8.4689
611.5 8.455598
612 8.442928
612.5 8.438927
613 8.437178
613.5 8.432198
614 8.423987
614.5 8.415849
615 8.39614
615.5 8.404375
616 8.399663
616.5 8.392022
617 8.379237
617.5 8.383644
618 8.384661
618.5 8.365127
619 8.37111
619.5 8.362804
620 8.358317
620.5 8.348907
621 8.35528
621.5 8.350688
622 8.335175
622.5 8.342617
623 8.337214
623.5 8.344143
624 8.328161
624.5 8.346664
625 8.353867
625.5 8.338076
626 8.332574
626.5 8.329438
627 8.33936
627.5 8.341381
628 8.345082
628.5 8.351675
629 8.347585
629.5 8.345652
630 8.364907
630.5 8.360458
631 8.358919
631.5 8.354824
632 8.360398
632.5 8.35228
633 8.366301
633.5 8.381311
634 8.363856
634.5 8.391298
635 8.36481
635.5 8.397447
636 8.399413
636.5 8.407149
637 8.395794
637.5 8.419017
638 8.419191
638.5 8.410557
639 8.424006
639.5 8.429827
640 8.436381
640.5 8.427268
641 8.460912
641.5 8.473928
642 8.468854
642.5 8.445132
643 8.478498
643.5 8.490139
644 8.489145
644.5 8.496441
645 8.510319
645.5 8.523533
646 8.509663
646.5 8.535611
647 8.531829
647.5 8.555736
648 8.546887
648.5 8.539943
649 8.575521
649.5 8.573637
650 8.595911
650.5 8.597054
651 8.604271
651.5 8.628709
652 8.621449
652.5 8.645197
653 8.641527
653.5 8.655724
654 8.661155
654.5 8.674739
655 8.687647
655.5 8.705539
656 8.702751
656.5 8.71432
657 8.737239
657.5 8.753372
658 8.751116
658.5 8.760387
659 8.780324
659.5 8.776338
660 8.797112
660.5 8.792364
661 8.820137
661.5 8.822101
662 8.849651
662.5 8.858895
663 8.851001
663.5 8.875103
664 8.889055
664.5 8.904395
665 8.910663
665.5 8.920565
666 8.939333
666.5 8.960837
667 8.982048
667.5 8.96956
668 8.998279
668.5 9.000549
669 9.02796
669.5 9.022969
670 9.05624
670.5 9.062035
671 9.081896
671.5 9.091373
672 9.124509
672.5 9.138787
673 9.136367
673.5 9.135189
674 9.162708
674.5 9.174138
675 9.192175
675.5 9.204457
676 9.229824
676.5 9.228357
677 9.260922
677.5 9.292201
678 9.27433
678.5 9.310008
679 9.322846
679.5 9.344446
680 9.357818
680.5 9.370522
681 9.382186
681.5 9.394206
682 9.428791
682.5 9.42885
683 9.447757
683.5 9.472836
684 9.472323
684.5 9.510177
685 9.517512
685.5 9.529985
686 9.547582
686.5 9.577883
687 9.59321
687.5 9.617246
688 9.621243
688.5 9.648274
689 9.675962
689.5 9.674403
690 9.690825
690.5 9.699665
691 9.737735
691.5 9.762218
692 9.76541
692.5 9.793022
693 9.802204
693.5 9.842699
694 9.833169
694.5 9.864883
695 9.878734
695.5 9.941267
696 9.91473
696.5 9.933191
697 9.961047
697.5 9.98913
698 10.010872
698.5 10.029699
699 10.04626
699.5 10.071488
700 10.094313
700.5 10.117472
701 10.123211
701.5 10.160019
702 10.167719
702.5 10.191126
703 10.196693
703.5 10.233796
704 10.250288
704.5 10.264759
705 10.288887
705.5 10.321815
706 10.326245
706.5 10.344388
707 10.354185
707.5 10.386043
708 10.434455
708.5 10.429696
709 10.459543
709.5 10.482837
710 10.495035
710.5 10.517253
711 10.547709
711.5 10.545517
712 10.585865
712.5 10.62062
713 10.628368
713.5 10.664441
714 10.679749
714.5 10.71116
715 10.713032
715.5 10.771786
716 10.750693
716.5 10.776835
717 10.805087
717.5 10.837394
718 10.885514
718.5 10.879228
719 10.906881
719.5 10.937724
720 10.946495
720.5 11.000189
721 11.038104
721.5 11.031093
722 11.043941
722.5 11.074875
723 11.113399
723.5 11.112357
724 11.156392
724.5 11.169364
725 11.189234
725.5 11.215755
726 11.190835
726.5 11.257997
727 11.299717
727.5 11.322438
728 11.336778
728.5 11.334667
729 11.395995
729.5 11.416814
730 11.435754
730.5 11.432128
731 11.503252
731.5 11.49793
732 11.509709
732.5 11.557835
733 11.578921
733.5 11.607656
734 11.595837
734.5 11.609924
735 11.651324
735.5 11.674745
736 11.701425
736.5 11.73778
737 11.75408
737.5 11.783693
738 11.817349
738.5 11.822825
739 11.843326
739.5 11.858483
740 11.882077
740.5 11.918154
741 11.946771
741.5 11.947695
742 11.966199
742.5 12.002368
743 12.029473
743.5 12.038219
744 12.075598
744.5 12.068673
745 12.124475
745.5 12.139258
746 12.159286
746.5 12.162806
747 12.183699
747.5 12.206899
748 12.24599
748.5 12.257954
749 12.274682
749.5 12.324481
750 12.298251
750.5 12.357706
751 12.385312
751.5 12.396585
752 12.411447
752.5 12.432214
753 12.440786
753.5 12.435841
754 12.487362
754.5 12.480676
755 12.521939
755.5 12.540773
756 12.560655
756.5 12.568809
757 12.617037
757.5 12.638959
758 12.642512
758.5 12.662154
759 12.674068
759.5 12.689559
760 12.72945
760.5 12.718205
761 12.758102
761.5 12.762177
762 12.788422
762.5 12.784195
763 12.814645
763.5 12.874137
764 12.82548
764.5 12.857434
765 12.868038
765.5 12.881447
766 12.916715
766.5 12.923332
767 12.941977
767.5 12.983121
768 12.981993
768.5 12.941633
769 12.996601
769.5 13.009647
770 13.012728
770.5 13.042201
771 13.056996
771.5 13.068371
772 13.091536
772.5 13.127163
773 13.104655
773.5 13.105401
774 13.130127
774.5 13.145773
775 13.187073
775.5 13.173367
776 13.199832
776.5 13.193145
777 13.202234
777.5 13.208744
778 13.277087
778.5 13.239545
779 13.238361
779.5 13.267969
780 13.244013
780.5 13.261521
781 13.274737
781.5 13.30356
782 13.282922
782.5 13.33552
783 13.351773
783.5 13.374721
784 13.379405
784.5 13.386674
785 13.381097
785.5 13.381945
786 13.392185
786.5 13.40501
787 13.409811
787.5 13.422248
788 13.425945
788.5 13.424903
789 13.462757
789.5 13.455421
790 13.482012
790.5 13.468468
791 13.469838
791.5 13.457324
792 13.512078
792.5 13.453439
793 13.452321
793.5 13.494988
794 13.469386
794.5 13.484614
795 13.524397
795.5 13.495481
796 13.500305
796.5 13.512094
797 13.530211
797.5 13.551651
798 13.532642
798.5 13.509476
799 13.530825
799.5 13.546596
800 13.555278
800.5 13.507305
801 13.563211
801.5 13.56736
802 13.550255
802.5 13.522033
803 13.536339
803.5 13.562563
804 13.563605
804.5 13.546763
805 13.551527
805.5 13.557388
806 13.556063
806.5 13.564411
807 13.595389
807.5 13.615373
808 13.571538
808.5 13.53623
809 13.622031
809.5 13.562368
810 13.58375
810.5 13.575828
811 13.57407
811.5 13.591869
812 13.59729
812.5 13.606584
813 13.507895
813.5 13.523448
814 13.548855
814.5 13.562958
815 13.549615
815.5 13.530393
816 13.524429
816.5 13.521536
817 13.531667
817.5 13.548908
818 13.527204
818.5 13.533756
819 13.543327
819.5 13.513428
820 13.578425
820.5 13.545907
821 13.499965
821.5 13.572857
822 13.485615
822.5 13.500382
823 13.510689
823.5 13.514888
824 13.526493
824.5 13.462961
825 13.406478
825.5 13.449793
826 13.478144
826.5 13.408487
827 13.427497
827.5 13.451272
828 13.367717
828.5 13.420966
829 13.453743
829.5 13.414961
830 13.433892
830.5 13.399872
831 13.379757
831.5 13.337687
832 13.327274
832.5 13.33342
833 13.312705
833.5 13.328208
834 13.340461
834.5 13.359949
835 13.278794
835.5 13.268088
836 13.291185
836.5 13.271601
837 13.222541
837.5 13.243318
838 13.254385
838.5 13.24897
839 13.240287
839.5 13.230243
840 13.231477
840.5 13.245744
841 13.159756
841.5 13.144791
842 13.202226
842.5 13.191962
843 13.164847
843.5 13.157554
844 13.148591
844.5 13.134332
845 13.150686
845.5 13.141245
846 13.006407
846.5 13.077588
847 13.067357
847.5 13.022149
848 13.044894
848.5 13.017981
849 13.100125
849.5 13.044035
850 12.974346
850.5 13.003302
851 12.951408
851.5 13.102305
852 13.016628
852.5 12.920181
853 13.094096
853.5 13.01261
854 12.959856
854.5 13.031492
855 12.989481
855.5 12.974529
856 13.040102
856.5 13.004979
857 12.936212
857.5 12.961565
858 12.930657
858.5 13.052996
859 12.977299
859.5 13.000152
860 12.896349
860.5 12.904809
861 10.116945
861.5 10.0598
862 10.075974
862.5 9.983861
863 10.12077
863.5 9.829592
864 10.124124
864.5 9.936087
865 10.043059
865.5 9.920252
866 10.044529
866.5 9.955239
867 9.978604
867.5 10.01188
868 9.817322
868.5 10.080328
869 9.993584
869.5 10.106327
870 9.900191
870.5 10.020497
871 9.966408
871.5 9.948492
872 10.088981
872.5 9.850465
873 10.082606
873.5 9.922347
874 10.029737
874.5 9.7862
875 9.974712
875.5 9.863901
876 9.938838
876.5 9.908563
877 9.755898
877.5 9.966937
878 9.861504
878.5 9.969503
879 9.786151
879.5 10.024273
880 9.893552
880.5 9.943876
881 9.862985
881.5 9.89216
882 9.933869
882.5 9.850122
883 9.972822
883.5 9.75188
884 9.907333
884.5 9.865753
885 9.925641
885.5 9.790538
886 9.868652
886.5 9.925088
887 9.882975
887.5 9.865165
888 9.722844
888.5 9.949263
889 9.737397
889.5 9.895049
890 9.731421
890.5 9.868781
891 9.749911
891.5 9.82733
892 9.823067
892.5 9.7698
893 9.879109
893.5 9.724016
894 9.852828
894.5 9.696057
895 9.837154
895.5 9.781038
896 9.806957
896.5 9.787225
897 9.709913
897.5 9.818228
898 9.722051
898.5 9.839971
899 9.581359
899.5 9.83553
900 9.598007
900.5 9.810936
901 9.709622
901.5 9.742367
902 9.775845
902.5 9.682739
903 9.807573
903.5 9.679706
904 9.850054
904.5 9.674366
905 9.771158
905.5 9.745985
906 9.680899
906.5 9.80684
907 9.731359
907.5 9.822224
908 9.562558
908.5 9.766226
909 9.490346
909.5 9.731036
910 9.537928
910.5 9.721991
911 9.589557
911.5 9.651594
912 9.733842
912.5 9.665509
913 9.743176
913.5 9.497946
914 9.763402
914.5 9.628148
915 9.709668
915.5 9.624641
916 9.667723
916.5 9.682709
917 9.55459
917.5 9.73888
918 9.553225
918.5 9.720264
919 9.507988
919.5 9.695424
920 9.464344
920.5 9.616323
921 9.688874
921.5 9.572396
922 9.600432
922.5 9.441568
923 9.683578
923.5 9.568044
924 9.657516
924.5 9.555019
925 9.70696
925.5 9.545778
926 9.608008
926.5 9.647281
927 9.556698
927.5 9.64594
928 9.574055
928.5 9.625524
929 9.510049
929.5 9.659764
930 9.550674
930.5 9.600877
931 9.574717
931.5 9.443478
932 9.582405
932.5 9.548175
933 9.62349
933.5 9.365413
934 9.695333
934.5 9.427125
935 9.617027
935.5 9.487409
936 9.574222
936.5 9.49529
937 9.504584
937.5 9.542719
938 9.503396
938.5 9.65995
939 9.470468
939.5 9.613392
940 9.511411
940.5 9.54826
941 9.540544
941.5 9.564751
942 9.556548
942.5 9.416215
943 9.545057
943.5 9.352559
944 9.592173
944.5 9.390821
945 9.608782
945.5 9.435682
946 9.536744
946.5 9.467574
947 9.426824
947.5 9.527522
948 9.336447
948.5 9.585393
949 9.389354
949.5 9.539726
950 9.497909
950.5 9.560487
951 9.504186
951.5 9.407925
952 9.517022
952.5 9.424263
953 9.632488
953.5 9.367925
954 9.580439
954.5 9.362704
955 9.598102
955.5 9.507281
956 9.509813
956.5 9.495953
957 9.338403
957.5 9.53173
958 9.410647
958.5 9.548605
959 9.425199
959.5 9.557353
960 9.499456
960.5 9.474476
961 9.44833
961.5 9.425575
962 9.580493
962.5 9.423417
963 9.528402
963.5 9.352639
964 9.513307
964.5 9.444303
965 9.544151
965.5 9.40679
966 9.431539
966.5 9.526425
967 9.504116
967.5 9.541137
968 9.195001
968.5 9.573609
969 9.412939
969.5 9.523244
970 9.358659
970.5 9.540691
971 9.455519
971.5 9.522636
972 9.472299
972.5 9.447439
973 9.534423
973.5 9.352283
974 9.551379
974.5 9.402768
975 9.473304
975.5 9.472892
976 9.546037
976.5 9.485429
977 9.395117
977.5 9.520048
978 9.367198
978.5 9.533966
979 9.411754
979.5 9.522007
980 9.355575
980.5 9.593044
981 9.472109
981.5 9.459703
982 9.511013
982.5 9.429889
983 9.542411
983.5 9.449691
984 9.602925
984.5 9.35028
985 9.524736
985.5 9.582831
986 9.473459
986.5 9.609359
987 9.439177
987.5 9.558041
988 9.403466
988.5 9.564436
989 9.279522
989.5 9.608557
990 9.362799
990.5 9.472492
991 9.375245
991.5 9.467822
992 9.562151
992.5 9.489237
993 9.572202
993.5 9.344085
994 9.660999
994.5 9.511158
995 9.558729
995.5 9.5702
996 9.577627
996.5 9.577277
997 9.427626
997.5 9.591283
998 9.427562
998.5 9.625693
999 9.43939
999.5 9.527773
1000 9.415795
1000.5 9.599844
1001 9.523503
1001.5 9.581605
1002 9.54014
1002.5 9.373134
1003 9.680973
1003.5 9.562666
1004 9.58477
1004.5 9.455785
1005 9.67515
1005.5 9.544802
1006 9.592167
1006.5 9.583627
1007 9.543844
1007.5 9.693673
1008 9.527249
1008.5 9.613717
1009 9.488723
1009.5 9.641277
1010 9.589835
1010.5 9.62055
1011 9.597266
1011.5 9.460221
1012 9.577274
1012.5 9.523252
1013 9.677259
1013.5 9.504268
1014 9.746931
1014.5 9.528267
1015 9.602652
1015.5 9.479918
1016 9.625745
1016.5 9.66362
1017 9.663557
1017.5 9.676326
1018 9.54907
1018.5 9.69597
1019 9.639782
1019.5 9.745628
1020 9.602931
1020.5 9.605915
1021 9.600393
1021.5 9.565285
1022 9.711832
1022.5 9.540994
1023 9.719966
1023.5 9.556929
1024 9.793812
1024.5 9.574753
1025 9.737103
1025.5 9.60841
1026 9.729575
1026.5 9.697854
1027 9.699942
1027.5 9.730361
1028 9.593932
1028.5 9.748875
1029 9.623706
1029.5 9.790556
1030 9.742032
1030.5 9.727981
1031 9.708142
1031.5 9.715687
1032 9.823517
1032.5 9.61726
1033 9.791541
1033.5 9.583132
1034 9.830824
1034.5 9.616684
1035 9.869199
1035.5 9.697088
1036 9.71228
1036.5 9.731536
1037 9.618859
1037.5 9.860735
1038 9.765285
1038.5 9.836265
1039 9.660917
1039.5 9.837547
1040 9.798364
1040.5 9.851513
1041 9.905197
1041.5 9.852605
1042 9.898488
1042.5 9.769871
1043 9.901239
1043.5 9.706496
1044 9.918123
1044.5 9.751531
1045 9.857464
1045.5 9.789881
1046 9.829018
1046.5 9.895343
1047 9.856846
1047.5 9.981243
1048 9.663823
1048.5 9.888946
1049 9.813864
1049.5 9.930187
1050 9.838618
1050.5 10.004618
1051 9.930158
1051.5 9.951981
1052 9.935011
1052.5 9.917646
1053 10.109695
1053.5 9.912928
1054 10.013851
1054.5 9.877466
1055 10.014268
1055.5 9.896826
1056 9.949203
1056.5 9.90128
1057 9.849495
1057.5 10.065223
1058 9.917305
1058.5 10.096224
1059 9.860684
1059.5 10.150999
1060 9.949435
1060.5 10.138354
1061 10.011342
1061.5 10.047462
1062 10.062312
1062.5 10.017069
1063 10.132147
1063.5 10.036718
1064 10.162023
1064.5 9.970401
1065 10.125525
1065.5 10.027952
1066 10.040116
1066.5 10.241006
1067 10.124172
1067.5 10.172329
1068 9.986851
1068.5 10.217099
1069 9.928609
1069.5 10.194153
1070 10.013895
1070.5 10.088329
1071 10.035204
1071.5 10.146138
1072 10.151908
1072.5 10.16453
1073 10.301074
1073.5 10.033689
1074 10.308611
1074.5 10.172706
1075 10.204004
1075.5 10.125576
1076 10.138017
1076.5 10.296149
1077 10.156868
1077.5 10.347862
1078 10.113208
1078.5 10.372492
1079 10.120024
1079.5 10.34714
1080 10.197405
1080.5 10.249912
1081 10.256549
1081.5 10.27822
1082 10.350347
1082.5 10.11752
1083 10.43603
1083.5 10.355785
1084 10.416292
1084.5 10.264762
1085 10.443334
1085.5 10.301594
1086 10.384399
1086.5 10.358693
1087 10.282317
1087.5 10.456868
1088 10.33267
1088.5 10.453146
1089 10.312426
1089.5 10.457077
1090 10.343279
1090.5 10.448506
1091 10.406664
1091.5 10.345569
1092 10.456332
1092.5 10.427117
1093 10.503952
1093.5 10.29219
1094 10.581029
1094.5 10.399428
1095 10.619599
1095.5 10.471602
1096 10.596616
1096.5 10.537592
1097 10.542092
1097.5 10.555115
1098 10.443515
1098.5 10.621883
1099 10.497426
1099.5 10.537426
1100 10.510453
1100.5 10.61347
1101 10.702729
1101.5 10.641343
1102 10.645296
1102.5 10.472092
1103 10.697594
1103.5 10.483883
1104 10.75356
1104.5 10.547625
1105 10.783947
1105.5 10.606067
1106 10.73316
1106.5 10.68852
1107 10.681248
1107.5 10.79312
1108 10.648118
1108.5 10.884604
1109 10.638997
1109.5 10.815831
1110 10.720607
1110.5 10.858686
1111 10.818153
1111.5 10.74361
1112 10.878242
1112.5 10.723633
1113 10.890012
1113.5 10.672094
1114 10.830067
1114.5 10.751191
1115 10.97727
1115.5 10.776625
1116 10.89348
1116.5 10.854401
1117 10.778261
1117.5 10.900768
1118 10.863935
1118.5 10.931975
1119 10.770155
1119.5 10.957538
1120 10.811458
1120.5 10.868574
1121 10.894102
1121.5 10.900597
1122 10.967826
1122.5 10.963845
1123 11.11085
1123.5 10.883493
1124 11.080939
1124.5 10.981023
1125 11.132228
1125.5 11.043905
1126 11.012781
1126.5 11.073846
1127 11.03763
1127.5 11.119399
1128 10.933558
1128.5 11.18755
1129 11.03993
1129.5 11.151291
1130 11.035666
1130.5 11.194471
1131 11.032694
1131.5 11.092009
1132 11.074828
1132.5 11.005231
1133 11.153609
1133.5 11.035775
1134 11.210577
1134.5 11.101747
1135 11.283953
1135.5 11.178555
1136 11.301971
1136.5 11.278277
1137 11.209676
1137.5 11.321382
1138 11.232881
1138.5 11.322292
1139 11.075213
1139.5 11.383334
1140 11.151782
1140.5 11.384971
1141 11.278331
1141.5 11.33153
1142 11.326217
1142.5 11.296286
1143 11.383879
1143.5 11.331171
1144 11.546827
1144.5 11.314767
1145 11.441161
1145.5 11.410332
1146 11.424197
1146.5 11.492776
1147 11.498353
1147.5 11.517829
1148 11.303016
1148.5 11.475625
1149 11.217561
1149.5 11.503498
1150 11.396337
1150.5 11.600824
1151 11.400421
1151.5 11.480124
1152 11.5806
1152.5 11.602196
1153 11.64424
1153.5 11.467224
1154 11.716425
1154.5 11.566612
1155 11.78546
1155.5 11.609682
1156 11.718923
1156.5 11.669637
1157 11.660659
1157.5 11.75499
1158 11.587901
1158.5 11.807472
1159 11.65198
1159.5 11.778357
1160 11.637895
1160.5 11.731876
1161 11.685892
1161.5 11.751182
1162 11.775295
1162.5 11.621633
1163 11.834938
1163.5 11.76361
1164 11.873949
1164.5 11.657324
1165 11.901814
1165.5 11.789075
1166 11.926287
1166.5 11.874445
1167 11.788037
1167.5 11.929383
1168 11.864333
1168.5 11.955492
1169 11.810739
1169.5 11.983379
1170 11.896173
1170.5 12.011199
1171 11.904295
1171.5 11.898859
1172 12.048645
1172.5 11.947596
1173 12.034968
1173.5 11.865523
1174 12.10927
1174.5 11.919815
1175 12.081929
1175.5 11.943097
1176 12.120462
1176.5 12.051121
1177 12.171157
1177.5 12.167171
1178 12.081829
1178.5 12.244067
1179 12.064431
1179.5 12.206187
1180 12.081721
1180.5 12.187764
1181 12.171207
1181.5 12.233448
1182 12.268795
1182.5 12.153926
1183 12.245797
1183.5 12.101223
1184 12.323882
1184.5 12.096503
1185 12.306564
1185.5 12.137311
1186 12.330328
1186.5 12.276739
1187 12.24376
1187.5 12.274879
1188 12.161451
1188.5 12.284839
1189 12.145816
1189.5 12.245799
1190 12.059085
1190.5 12.53325
1191 12.33236
1191.5 12.489769
1192 12.350117
1192.5 12.479343
1193 12.549539
1193.5 12.460898
1194 12.507211
1194.5 12.358027
1195 12.610821
1195.5 12.398361
1196 12.582134
1196.5 12.355686
1197 12.600109
1197.5 12.438017
1198 12.683007
1198.5 12.535316
1199 12.594861
1199.5 12.643841
1200 12.528673
1200.5 12.706691
1201 12.58712
1201.5 12.76076
1202 12.624966
1202.5 12.775895
1203 12.717021
1203.5 12.664174
1204 12.790683
1204.5 12.675484
1205 12.866798
1205.5 12.621622
1206 12.801874
1206.5 12.628111
1207 12.893516
1207.5 12.741768
1208 12.838587
1208.5 12.7902
1209 12.726657
1209.5 12.934199
1210 12.888598
1210.5 12.935843
1211 12.740767
1211.5 13.044427
1212 12.911354
1212.5 13.028766
1213 12.910119
1213.5 12.97088
1214 12.966272
1214.5 12.979738
1215 13.103923
1215.5 12.927143
1216 13.111533
1216.5 12.962383
1217 13.0925
1217.5 12.975825
1218 13.018963
1218.5 13.035713
1219 13.07966
1219.5 13.083006
1220 12.969069
1220.5 13.224591
1221 13.110349
1221.5 13.199499
1222 12.984826
1222.5 13.238919
1223 13.116463
1223.5 13.280648
1224 13.270314
1224.5 13.221318
1225 13.323303
1225.5 13.298202
1226 13.352564
1226.5 13.284512
1227 13.391204
1227.5 13.276552
1228 13.426898
1228.5 13.308677
1229 13.296126
1229.5 13.454033
1230 13.395275
1230.5 13.413203
1231 13.276555
1231.5 13.52604
1232 13.225675
1232.5 13.553327
1233 13.418025
1233.5 13.520984
1234 13.460493
1234.5 13.407294
1235 13.53348
1235.5 13.466145
1236 13.580908
1236.5 13.397862
1237 13.670538
1237.5 13.579954
1238 13.644035
1238.5 13.658778
1239 13.639182
1239.5 13.679399
1240 13.616878
1240.5 13.745309
1241 13.567725
1241.5 13.791648
1242 13.63256
1242.5 13.801832
1243 13.608055
1243.5 13.73926
1244 13.773043
1244.5 13.725865
1245 13.827085
1245.5 13.586219
1246 13.871397
1246.5 13.772728
1247 13.899921
1247.5 13.763691
1248 13.921015
1248.5 13.835248
1249 13.939272
1249.5 13.942875
1250 13.817519
1250.5 14.043003
1251 13.84723
1251.5 13.973297
1252 13.792363
1252.5 13.97171
1253 13.861133
1253.5 13.960212
1254 13.903332
1254.5 13.912509
1255 14.113189
1255.5 14.061372
1256 14.141065
1256.5 13.954584
1257 14.172505
1257.5 14.011642
1258 14.181186
1258.5 14.120178
1259 14.2197
1259.5 14.169112
1260 14.252661
1260.5 14.296636
1261 14.087564
1261.5 14.337859
1262 14.211884
1262.5 14.34809
1263 14.220667
1263.5 14.258765
1264 14.359741
1264.5 14.353745
1265 14.366598
1265.5 14.227878
1266 14.457232
1266.5 14.219242
1267 14.458969
1267.5 14.307129
1268 14.453036
1268.5 14.30504
1269 14.483181
1269.5 14.409775
1270 14.410485
1270.5 14.49412
1271 14.443345
1271.5 14.577754
1272 14.439625
1272.5 14.587438
1273 14.551684
1273.5 14.603809
1274 14.59296
1274.5 14.587905
1275 14.684385
1275.5 14.527467
1276 14.713761
1276.5 14.481914
1277 14.686231
1277.5 14.46224
1278 14.739423
1278.5 14.653081
1279 14.727995
1279.5 14.722164
1280 14.635311
1280.5 14.782031
1281 14.699166
1281.5 14.845887
1282 14.672749
1282.5 14.887314
1283 14.783086
1283.5 14.846316
1284 14.815159
1284.5 14.880821
1285 14.93728
1285.5 14.789699
1286 15.043108
1286.5 14.860067
1287 15.020518
1287.5 14.892241
1288 15.002714
1288.5 14.868668
1289 14.973199
1289.5 14.969665
1290 14.964311
1290.5 15.076534
1291 14.821924
1291.5 15.116048
1292 15.019338
1292.5 15.150928
1293 14.924137
1293.5 15.129864
1294 15.086733
1294.5 15.171628
1295 15.168661
1295.5 15.135598
1296 15.225461
1296.5 15.188856
1297 15.257896
1297.5 15.142456
1298 15.301229
1298.5 15.202993
1299 15.301283
1299.5 15.245268
1300 15.203184
1300.5 15.321453
1301 15.282528
1301.5 15.387268
1302 15.090039
1302.5 15.458706
1303 15.252851
1303.5 15.409566
1304 15.331498
1304.5 15.432841
1305 15.419097
1305.5 15.379658
1306 15.534343
1306.5 15.411183
1307 15.537356
1307.5 15.405197
1308 15.545328
1308.5 15.496221
1309 15.5342
1309.5 15.595052
1310 15.589719
1310.5 15.628947
1311 15.501706
1311.5 15.682405
1312 15.453669
1312.5 15.665263
1313 15.479052
1313.5 15.673497
1314 15.527846
1314.5 15.699433
1315 15.726566
1315.5 15.695161
1316 15.728875
1316.5 15.590751
1317 15.830219
1317.5 15.703492
1318 15.874289
1318.5 15.727128
1319 15.844536
1319.5 15.821485
1320 15.825918
1320.5 15.92785
1321 15.805134
1321.5 15.996584
1322 15.827373
1322.5 16.010369
1323 15.820417
1323.5 15.990904
1324 15.930344
1324.5 16.026987
1325 16.02236
1325.5 15.946776
1326 16.174039
1326.5 16.048214
1327 16.246976
1327.5 16.023521
1328 16.171889
1328.5 16.043209
1329 16.114128
1329.5 16.069385
1330 16.049607
1330.5 16.172269
1331 16.127151
1331.5 16.244222
1332 16.117878
1332.5 16.287945
1333 16.109273
1333.5 16.290258
1334 16.150817
1334.5 16.197212
1335 16.313329
1335.5 16.317376
1336 16.343613
1336.5 16.145355
1337 16.456363
1337.5 16.171212
1338 16.410178
1338.5 16.22083
1339 16.422677
1339.5 16.353951
1340 16.507244
1340.5 16.462059
1341 16.441222
1341.5 16.584726
1342 16.443761
1342.5 16.615711
1343 16.509362
1343.5 16.613293
1344 16.493216
1344.5 16.537757
1345 16.503747
1345.5 16.418537
1346 16.579103
1346.5 16.406476
1347 16.689195
1347.5 16.530707
1348 16.873179
1348.5 16.591085
1349 16.74668
1349.5 16.581054
1350 16.698818
1350.5 16.70683
1351 16.646056
1351.5 16.827562
1352 16.671391
1352.5 16.845505
1353 16.651571
1353.5 16.769877
1354 16.709255
1354.5 16.90249
1355 16.882619
1355.5 16.915284
1356 16.906761
1356.5 16.785702
1357 17.109974
1357.5 16.78931
1358 16.979341
1358.5 16.820571
1359 16.970782
1359.5 16.904627
1360 16.85086
1360.5 16.858335
1361 16.749588
1361.5 17.071322
1362 17.016707
1362.5 17.509237
1363 17.014743
1363.5 16.909201
1364 16.9181
1364.5 17.224334
1365 17.244716
1365.5 17.20866
1366 17.176352
1366.5 16.884826
1367 17.186543
1367.5 17.158826
1368 17.361015
1368.5 17.21866
1369 17.238186
1369.5 17.077868
1370 17.115584
1370.5 17.311679
1371 17.285661
1371.5 17.507814
1372 17.385589
1372.5 17.429617
1373 17.206255
1373.5 17.372215
1374 17.333257
1374.5 17.500789
1375 17.455812
1375.5 17.435551
1376 17.463595
1376.5 17.465378
1377 17.55251
1377.5 17.316054
1378 17.544335
1378.5 17.606218
1379 17.564462
1379.5 17.252813
1380 17.410591
1380.5 17.801209
1381 17.557843
1381.5 17.431498
1382 17.294045
1382.5 17.928249
1383 17.69045
1383.5 17.661451
1384 17.475194
1384.5 17.647387
1385 17.777199
1385.5 17.803887
1386 17.780383
1386.5 17.58121
1387 17.642397
1387.5 17.533828
1388 17.967692
1388.5 17.889883
1389 17.875999
1389.5 18.022311
1390 17.919366
1390.5 17.930737
1391 17.622206
1391.5 17.833437
1392 17.802219
1392.5 18.139417
1393 17.701448
1393.5 17.890982
1394 17.648198
1394.5 17.798555
1395 17.970222
1395.5 17.996328
1396 18.155362
1396.5 18.079956
1397 18.245508
1397.5 18.067029
1398 18.084815
1398.5 17.908412
1399 17.922761
1399.5 17.919734
1400 18.036029
1400.5 18.286599
1401 18.20356
1401.5 18.422739
1402 18.061127
1402.5 18.223158
1403 18.046817
1403.5 18.124798
1404 18.078448
1404.5 18.330516
1405 18.442895
1405.5 18.152502
1406 18.192317
1406.5 18.200576
1407 18.429185
1407.5 18.261546
1408 18.263833
1408.5 18.125278
1409 18.490751
1409.5 18.481864
1410 18.461701
1410.5 18.431869
1411 18.323694
1411.5 18.549809
1412 18.407767
1412.5 18.451868
1413 18.275812
1413.5 18.49082
1414 18.527037
1414.5 18.565214
1415 18.601584
1415.5 18.534103
1416 18.524326
1416.5 18.251777
1417 18.562992
1417.5 18.353541
1418 18.626407
1418.5 18.564621
1419 18.726338
1419.5 18.73042
1420 18.773067
1420.5 18.781146
1421 18.743809
1421.5 18.816552
1422 18.677819
1422.5 18.817486
1423 18.682337
1423.5 18.868725
1424 18.754874
1424.5 18.833949
1425 18.741865
1425.5 18.697958
1426 18.852229
1426.5 18.664034
1427 18.854117
1427.5 18.663353
1428 18.971166
1428.5 18.744838
1429 18.962784
1429.5 18.856983
1430 18.81057
1430.5 18.873635
1431 18.803799
1431.5 19.028775
1432 18.964337
1432.5 19.116183
1433 18.906613
1433.5 19.059691
1434 19.061117
1434.5 19.015707
1435 19.082674
1435.5 18.976465
1436 19.121882
1436.5 18.926549
1437 19.204693
1437.5 18.930848
1438 19.206651
1438.5 19.082288
1439 19.220263
1439.5 19.148721
1440 19.04653
1440.5 19.249493
1441 19.162552
1441.5 19.303095
1442 19.094679
1442.5 19.31269
1443 19.26671
1443.5 19.269216
1444 19.232956
1444.5 19.176924
1445 19.366841
1445.5 19.34128
1446 19.524179
1446.5 19.277067
1447 19.483571
1447.5 19.292973
1448 19.455105
1448.5 19.366343
1449 19.401985
1449.5 19.40136
1450 19.468479
1450.5 19.53579
1451 19.358036
1451.5 19.574276
1452 19.443358
1452.5 19.598687
1453 19.4013
1453.5 19.627027
1454 19.47957
1454.5 19.574964
1455 19.640934
1455.5 19.5676
1456 19.715804
1456.5 19.564089
1457 19.716418
1457.5 19.54689
1458 19.693059
1458.5 19.69582
1459 19.71294
1459.5 19.70367
1460 19.605257
1460.5 19.795243
1461 19.717003
1461.5 19.803029
1462 19.561048
1462.5 19.877028
1463 19.719981
1463.5 19.878158
1464 19.746743
1464.5 19.825968
1465 19.88489
1465.5 19.872604
1466 19.970855
1466.5 19.840886
1467 20.048024
1467.5 19.886817
1468 20.138206
1468.5 19.962515
1469 19.92172
1469.5 19.97892
1470 20.005265
1470.5 20.093955
1471 19.880752
1471.5 20.099345
1472 19.897775
1472.5 20.163545
1473 19.891413
1473.5 20.118086
1474 19.958985
1474.5 20.037343
1475 20.080446
1475.5 19.988257
1476 20.162737
1476.5 19.974945
1477 20.267907
1477.5 20.135148
1478 20.276818
1478.5 20.152391
1479 20.310618
1479.5 20.221134
1480 20.180956
1480.5 20.365603
1481 20.172635
1481.5 20.413283
1482 20.174678
1482.5 20.410809
1483 20.203447
1483.5 20.389584
1484 20.362736
1484.5 20.401648
1485 20.443444
1485.5 20.404741
1486 20.526643
1486.5 20.391172
1487 20.544159
1487.5 20.347886
1488 20.576476
1488.5 20.391068
1489 20.441861
1489.5 20.43307
1490 20.449321
1490.5 20.525809
1491 20.477712
1491.5 20.621845
1492 20.489761
1492.5 20.629333
1493 20.49724
1493.5 20.600502
1494 20.52341
1494.5 20.515326
1495 20.61561
1495.5 20.591423
1496 20.647301
1496.5 20.448102
1497 20.751475
1497.5 20.551014
1498 20.827948
1498.5 20.644455
1499 20.790945
1499.5 20.745347
1500 20.896956
1500.5 20.886201
1501 20.810649
1501.5 20.867123
1502 20.698982
1502.5 20.839295
1503 20.779999
1503.5 20.863917
1504 20.851065
1504.5 20.889452
1505 20.834124
1505.5 20.771532
1506 20.962964
1506.5 20.778149
1507 21.002968
1507.5 20.775457
1508 21.048373
1508.5 20.890659
1509 21.058737
1509.5 20.993379
1510 21.036065
1510.5 21.080089
1511 20.966713
1511.5 21.20508
1512 21.040492
1512.5 21.152397
1513 20.971836
1513.5 21.129051
1514 21.055898
1514.5 21.05789
1515 21.104442
1515.5 21.09744
1516 21.211208
1516.5 21.007138
1517 21.251032
1517.5 20.984606
1518 21.28008
1518.5 21.088943
1519 21.239476
1519.5 21.200293
1520 21.126853
1520.5 21.280731
1521 21.143481
1521.5 21.365128
1522 21.194758
1522.5 21.401453
1523 21.274976
1523.5 21.459867
1524 21.366574
1524.5 21.451728
1525 21.515064
1525.5 21.445233
1526 21.536708
1526.5 21.254534
1527 21.52811
1527.5 21.322317
1528 21.448335
1528.5 21.292947
1529 21.416621
1529.5 21.444945
1530 21.431811
1530.5 21.472907
1531 21.290974
1531.5 21.559535
1532 21.503466
1532.5 21.626881
1533 21.446595
1533.5 21.709731
1534 21.563055
1534.5 21.718825
1535 21.672225
1535.5 21.564555
1536 21.595329
1536.5 21.548975
1537 21.723403
1537.5 21.5619
1538 21.742912
1538.5 21.655092
1539 21.733147
1539.5 21.61651
1540 21.657142
1540.5 21.735281
1541 21.739142
1541.5 21.7761
1542 21.596779
1542.5 21.887723
1543 21.680792
1543.5 21.927457
1544 21.802862
1544.5 21.940799
1545 21.912074
1545.5 21.875234
1546 21.812059
1546.5 21.758027
1547 21.944591
1547.5 21.749906
1548 21.960333
1548.5 21.829709
1549 21.937825
1549.5 21.938868
1550 21.980281
1550.5 21.900581
1551 21.879657
1551.5 22.066805
1552 21.78655
1552.5 22.050184
1553 21.838851
1553.5 22.072715
1554 21.951984
1554.5 22.14548
1555 22.026531
1555.5 22.052562
1556 22.150056
1556.5 22.074978
1557 22.284248
1557.5 22.187552
1558 22.240673
1558.5 22.032548
1559 22.183122
1559.5 22.150904
1560 22.150747
1560.5 22.191839
1561 22.148834
1561.5 22.286619
1562 22.150247
1562.5 22.32056
1563 22.113147
1563.5 22.301297
1564 22.219531
1564.5 22.31387
1565 22.251327
1565.5 22.261477
1566 22.378889
1566.5 22.339609
1567 22.464639
1567.5 22.307913
1568 22.516185
1568.5 22.316962
1569 22.411612
1569.5 22.342446
1570 22.381712
1570.5 22.376876
1571 22.35674
1571.5 22.470364
1572 22.381222
1572.5 22.52045
1573 22.390161
1573.5 22.544116
1574 22.374749
1574.5 22.535005
1575 22.556089
1575.5 22.57219
1576 22.615877
1576.5 22.425842
1577 22.642875
1577.5 22.463068
1578 22.638199
1578.5 22.414279
1579 22.636926
1579.5 22.508009
1580 22.61775
1580.5 22.635558
1581 22.632663
1581.5 22.688803
1582 22.558703
1582.5 22.753294
1583 22.621518
1583.5 22.809014
1584 22.651921
1584.5 22.758491
1585 22.738028
1585.5 22.734921
1586 22.876394
1586.5 22.74165
1587 22.936018
1587.5 22.686121
1588 22.923428
1588.5 22.699741
1589 22.923827
1589.5 22.765502
1590 22.893928
1590.5 22.805157
1591 22.736458
1591.5 22.872259
1592 22.820871
1592.5 22.958133
1593 22.733501
1593.5 23.020633
1594 22.896975
1594.5 22.983287
1595 22.960746
1595.5 22.941859
1596 23.045515
1596.5 22.933933
1597 23.087969
1597.5 22.938932
1598 23.189725
1598.5 22.92202
1599 23.078448
1599.5 22.937344
1600 22.994481
1600.5 22.970928
1601 23.021294
1601.5 23.121373
1602 22.904265
1602.5 23.206775
1603 23.096734
1603.5 23.196374
1604 23.09747
1604.5 23.178828
1605 23.172747
1605.5 23.198068
1606 23.310401
1606.5 23.074685
1607 23.32004
1607.5 23.164971
1608 23.225926
1608.5 23.097865
1609 23.286237
1609.5 23.173083
1610 23.227528
1610.5 23.224895
1611 23.111798
1611.5 23.323375
1612 23.272072
1612.5 23.338592
1613 23.124549
1613.5 23.395102
1614 23.24474
1614.5 23.371746
1615 23.29217
1615.5 23.389529
1616 23.444325
1616.5 23.460476
1617 23.554942
1617.5 23.417234
1618 23.615214
1618.5 23.447344
1619 23.46791
1619.5 23.323315
1620 23.391713
1620.5 23.441088
1621 23.460668
1621.5 23.512012
1622 23.301519
1622.5 23.555438
1623 23.315416
1623.5 23.55015
1624 23.324922
1624.5 23.557314
1625 23.473166
1625.5 23.571146
1626 23.568234
1626.5 23.498631
1627 23.672435
1627.5 23.531187
1628 23.720731
1628.5 23.569539
1629 23.689559
1629.5 23.534954
1630 23.734294
1630.5 23.745717
1631 23.681441
1631.5 23.782136
1632 23.680325
1632.5 23.96383
1633 23.759805
1633.5 23.918389
1634 23.522168
1634.5 23.76821
1635 23.670323
1635.5 23.693098
1636 23.718923
1636.5 23.624456
1637 23.793547
1637.5 23.739424
1638 23.805192
1638.5 23.664707
1639 23.901118
1639.5 23.831102
1640 23.855047
1640.5 23.82853
1641 23.874325
1641.5 23.917466
1642 23.91443
1642.5 24.039224
1643 23.894073
1643.5 24.065866
1644 23.843786
1644.5 23.982124
1645 23.85941
1645.5 23.904328
1646 23.955923
1646.5 23.938918
1647 23.979457
1647.5 23.790012
1648 24.076059
1648.5 23.944312
1649 24.032791
1649.5 23.865914
1650 24.051401
1650.5 24.012743
1651 24.13438
1651.5 24.125056
1652 24.085911
1652.5 24.237213
1653 24.084891
1653.5 24.279496
1654 24.082029
1654.5 24.155863
1655 24.06012
1655.5 24.161781
1656 24.07164
1656.5 24.041939
1657 24.185327
1657.5 24.085206
1658 24.217236
1658.5 23.983891
1659 24.231979
1659.5 24.01281
1660 24.300405
1660.5 24.17229
1661 24.271269
1661.5 24.222095
1662 24.22682
1662.5 24.322519
1663 24.273428
1663.5 24.447951
1664 24.298733
1664.5 24.422523
1665 24.245289
1665.5 24.308187
1666 24.259192
1666.5 24.289405
1667 24.341589
1667.5 24.166198
1668 24.34379
1668.5 24.089406
1669 24.333361
1669.5 24.122834
1670 24.2129
1670.5 24.267782
1671 24.52397
1671.5 24.292433
1672 24.42513
1672.5 24.308319
1673 24.42219
1673.5 24.417894
1674 24.395712
1674.5 24.477731
1675 24.395961
1675.5 24.540444
1676 24.405596
1676.5 24.674782
1677 24.491739
1677.5 24.507409
1678 24.456921
1678.5 24.446817
1679 24.606122
1679.5 24.398896
1680 24.597
1680.5 24.40777
1681 24.680962
1681.5 24.459778
1682 24.67753
1682.5 24.577136
1683 24.675834
1683.5 24.734592
1684 24.649644
1684.5 24.599354
1685 24.399583
1685.5 24.669015
1686 24.580871
1686.5 24.733754
1687 24.51701
1687.5 24.774125
1688 24.733549
1688.5 24.725431
1689 24.846704
1689.5 24.584536
1690 24.764054
1690.5 24.63311
1691 24.772021
1691.5 24.581774
1692 24.78071
1692.5 24.666926
1693 24.740651
1693.5 24.742699
1694 24.698
1694.5 24.907118
1695 24.816479
1695.5 24.898331
1696 24.663013
1696.5 24.852967
1697 24.68828
1697.5 24.830477
1698 24.710888
1698.5 24.850263
1699 24.871592
1699.5 24.810386
1700 24.949439
1700.5 24.775951
1701 24.946333
1701.5 24.898867
1702 25.003269
1702.5 24.805939
1703 24.88205
1703.5 24.937552
1704 24.919367
1704.5 24.937047
1705 24.754404
1705.5 24.998634
1706 24.814253
1706.5 25.032574
1707 24.764167
1707.5 25.044841
1708 24.806225
1708.5 25.015178
1709 25.017858
1709.5 25.026116
1710 25.109538
1710.5 24.882756
1711 25.16076
1711.5 24.983545
1712 25.221816
1712.5 25.075886
1713 25.303224
1713.5 25.153434
1714 25.032926
1714.5 25.173736
1715 25.096276
1715.5 25.181273
1716 24.973865
1716.5 25.236917
1717 24.960019
1717.5 25.226745
1718 25.112396
1718.5 25.158367
1719 25.157407
1719.5 25.057629
1720 25.271392
1720.5 25.176623
1721 25.282431
1721.5 25.078979
1722 25.33606
1722.5 25.206867
1723 25.323218
1723.5 25.214472
1724 25.310349
1724.5 25.356454
1725 25.280467
1725.5 25.467277
1726 25.271535
1726.5 25.48928
1727 25.342458
1727.5 25.420547
1728 25.238889
1728.5 25.34157
1729 25.387597
1729.5 25.330198
1730 25.33913
1730.5 25.189495
1731 25.46618
1731.5 25.239438
1732 25.470242
1732.5 25.299948
1733 25.548664
1733.5 25.374994
1734 25.444338
1734.5 25.45681
1735 25.412524
1735.5 25.528204
1736 25.407678
1736.5 25.500262
1737 25.394207
1737.5 25.545469
1738 25.408667
1738.5 25.567207
1739 25.443918
1739.5 25.407153
1740 25.531518
1740.5 25.441387
1741 25.569448
1741.5 25.350496
1742 25.643924
1742.5 25.426066
1743 25.615612
1743.5 25.490275
1744 25.534773
1744.5 25.549847
1745 25.562766
1745.5 25.615403
1746 25.544405
1746.5 25.725204
1747 25.556695
1747.5 25.774422
1748 25.644141
1748.5 25.702021
1749 25.64382
1749.5 25.717056
1750 25.726607
1750.5 25.586164
1751 25.834441
1751.5 25.611174
1752 25.852722
1752.5 25.611597
1753 25.857654
1753.5 25.760269
1754 25.83833
1754.5 25.76085
1755 25.681767
1755.5 25.763699
1756 25.613526
1756.5 25.853992
1757 25.767264
1757.5 25.930265
1758 25.737149
1758.5 25.845182
1759 25.819623
1759.5 25.855485
1760 25.784606
1760.5 25.747013
1761 25.944591
1761.5 25.754893
1762 25.949019
1762.5 25.721446
1763 25.914899
1763.5 25.849718
1764 25.884414
1764.5 25.891355
1765 25.775343
1765.5 26.01732
1766 25.859088
1766.5 26.016787
1767 25.7866
1767.5 26.041186
1768 25.984719
1768.5 26.086184
1769 25.981152
1769.5 26.008105
1770 25.997737
1770.5 25.96924
1771 26.0887
1771.5 25.967738
1772 26.13858
1772.5 25.95416
1773 26.112589
1773.5 25.958401
1774 26.02886
1774.5 26.096505
1775 26.042816
1775.5 25.949675
1776 25.876176
1776.5 26.064974
1777 25.892472
1777.5 26.085481
1778 25.917715
1778.5 26.16016
1779 26.097497
1779.5 26.157308
1780 26.296002
1780.5 26.191786
1781 26.260477
1781.5 26.165161
1782 26.34334
1782.5 26.162568
1783 26.279819
1783.5 26.192594
1784 26.367816
1784.5 26.241711
1785 26.220363
1785.5 26.342455
1786 26.231298
1786.5 26.401699
1787 26.112783
1787.5 26.387683
1788 26.186478
1788.5 26.401275
1789 26.237297
1789.5 26.346755
1790 26.310566
1790.5 26.286715
1791 26.467043
1791.5 26.362035
1792 26.501089
1792.5 26.320797
1793 26.551074
1793.5 26.423287
1794 26.469412
1794.5 26.479873
1795 26.50421
1795.5 26.585844
1796 26.402003
1796.5 26.522642
1797 26.316112
1797.5 26.526454
1798 26.337492
1798.5 26.450491
1799 26.323402
1799.5 26.336154
1800 26.514602
1800.5 26.437622
1801 26.561528
1801.5 26.426178
1802 26.720878
1802.5 26.574925
1803 26.67259
1803.5 26.471263
1804 26.686579
1804.5 26.537779
1805 26.561999
1805.5 26.711354
1806 26.672271
1806.5 26.777631
1807 26.534185
1807.5 26.655942
1808 26.462799
1808.5 26.650527
1809 26.504004
1809.5 26.518965
1810 26.56959
1810.5 26.640397
1811 26.764241
1811.5 26.685971
1812 26.804447
1812.5 26.555428
1813 26.843131
1813.5 26.521131
1814 26.665071
1814.5 26.52142
1815 26.812944
1815.5 26.832286
1816 26.887152
1816.5 26.884872
1817 26.690948
1817.5 26.856977
1818 26.642868
1818.5 26.793697
1819 26.556307
1819.5 26.613587
1820 26.727629
1820.5 26.909372
1821 26.914069
1821.5 26.848057
1822 27.002129
1822.5 26.811984
1823 27.020416
1823.5 26.803046
1824 26.941666
1824.5 26.667246
1825 26.73209
1825.5 26.760703
1826 26.938531
1826.5 27.040783
1827 26.750675
1827.5 26.901105
1828 26.797491
1828.5 27.049801
1829 26.80608
1829.5 26.907966
1830 26.838663
1830.5 26.901293
1831 27.14467
1831.5 26.98732
1832 27.198249
1832.5 26.975128
1833 27.093178
1833.5 26.808545
1834 26.958793
1834.5 26.684427
1835 26.90559
1835.5 26.934502
1836 26.855314
1836.5 27.053902
1837 26.948309
1837.5 27.213055
1838 26.96507
1838.5 27.103698
1839 26.853749
1839.5 27.028525
1840 26.858509
1840.5 26.924333
1841 27.069294
1841.5 27.130845
1842 27.354196
1842.5 27.190745
1843 27.28228
1843.5 27.17562
1844 27.263647
1844.5 27.033707
1845 27.000251
1845.5 26.993155
1846 26.913911
1846.5 26.833594
1847 26.994047
1847.5 27.267686
1848 27.172452
1848.5 27.17652
1849 27.151796
1849.5 27.417898
1850 27.296001
1850.5 27.33705
1851 27.15323
1851.5 27.083039
1852 27.006367
1852.5 26.968005
1853 27.26987
1853.5 27.280948
1854 27.450526
1854.5 27.213806
1855 27.30031
1855.5 27.143896
1856 27.343357
1856.5 27.521777
1857 27.315077
1857.5 27.300584
1858 26.995382
1858.5 27.174962
1859 26.951167
1859.5 27.424192
1860 27.3058
1860.5 27.512276
1861 27.379423
1861.5 27.292606
1862 27.356046
1862.5 27.155158
1863 27.330258
1863.5 27.250555
1864 27.619728
1864.5 27.546671
1865 27.519274
1865.5 27.405044
1866 27.357233
1866.5 27.167279
1867 27.204943
1867.5 27.645278
1868 27.42753
1868.5 27.5639
1869 27.298358
1869.5 27.337775
1870 27.215037
1870.5 27.455339
1871 27.378502
1871.5 27.347517
1872 27.430317
1872.5 27.191895
1873 27.602988
1873.5 27.538648
1874 27.657622
1874.5 27.321282
1875 27.450824
1875.5 27.300885
1876 27.53813
1876.5 27.596673
1877 27.654526
1877.5 27.716264
1878 27.512684
1878.5 27.606866
1879 27.365327
1879.5 27.568167
1880 27.511811
1880.5 27.699333
1881 27.62194
1881.5 27.548131
1882 27.582657
1882.5 27.427453
1883 27.562225
1883.5 27.472451
1884 27.751681
1884.5 27.530876
1885 27.763173
1885.5 27.493706
1886 27.685121
1886.5 27.63066
1887 27.619067
1887.5 27.646026
1888 27.477127
1888.5 27.552322
1889 27.48732
1889.5 27.760708
1890 27.629903
1890.5 27.79749
1891 27.654546
1891.5 27.78739
1892 27.773094
1892.5 27.753136
1893 27.866337
1893.5 27.762681
1894 27.912763
1894.5 27.615929
1895 27.84839
1895.5 27.608496
1896 27.777019
1896.5 27.666613
1897 27.578053
1897.5 27.685916
1898 27.487326
1898.5 27.696031
1899 27.759382
1899.5 27.996784
1900 27.785611
1900.5 28.094897
1901 27.789521
1901.5 27.798235
1902 27.7933
1902.5 27.75951
1903 27.812639
1903.5 27.644169
1904 27.780831
1904.5 27.518395
1905 27.90308
1905.5 27.796742
1906 27.973774
1906.5 27.947441
1907 28.000051
1907.5 28.048226
1908 27.923316
1908.5 27.934459
1909 27.653149
1909.5 27.914172
1910 27.697328
1910.5 27.86006
1911 27.716684
1911.5 27.819571
1912 27.788284
1912.5 27.843967
1913 27.958381
1913.5 27.902889
1914 28.063974
1914.5 27.950069
1915 28.129348
1915.5 27.963018
1916 28.116888
1916.5 28.028369
1917 28.113231
1917.5 27.870578
1918 27.865347
1918.5 27.933934
1919 27.650681
1919.5 27.953282
1920 27.806479
1920.5 28.141299
1921 28.003612
1921.5 28.154451
1922 28.010753
1922.5 27.984908
1923 27.912906
1923.5 27.902281
1924 28.086993
1924.5 27.849305
1925 28.010896
1925.5 27.804753
1926 28.027037
1926.5 28.014719
1927 28.007519
1927.5 28.033981
1928 28.002515
1928.5 28.109106
1929 28.019512
1929.5 28.180203
1930 27.915949
1930.5 28.168407
1931 28.044251
1931.5 28.172475
1932 28.022027
1932.5 28.13718
1933 28.139168
1933.5 28.090039
1934 28.145736
1934.5 27.936339
1935 28.270173
1935.5 28.115717
1936 28.262481
1936.5 28.138533
1937 28.25076
1937.5 28.231087
1938 28.194478
1938.5 28.255346
1939 28.163537
1939.5 28.379655
1940 28.212631
1940.5 28.364983
1941 28.195396
1941.5 28.326872
1942 28.199291
1942.5 28.293374
1943 28.262115
1943.5 28.17975
1944 28.393883
1944.5 28.316051
1945 28.417426
1945.5 28.183326
1946 28.466222
1946.5 28.310049
1947 28.407371
1947.5 28.3122
1948 28.381294
1948.5 28.409392
1949 28.391522
1949.5 28.506693
1950 28.346983
1950.5 28.516391
1951 28.362468
1951.5 28.498718
1952 28.426975
1952.5 28.457481
1953 28.515518
1953.5 28.447342
1954 28.540862
1954.5 28.382039
1955 28.560817
1955.5 28.325427
1956 28.6145
1956.5 28.385445
1957 28.522563
1957.5 28.493503
1958 28.549424
1958.5 28.569749
1959 28.502572
1959.5 28.633231
1960 28.480965
1960.5 28.623021
1961 28.511035
1961.5 28.746685
1962 28.540581
1962.5 28.699756
1963 28.588584
1963.5 28.562367
1964 28.675562
1964.5 28.587759
1965 28.742883
1965.5 28.538898
1966 28.7476
1966.5 28.573182
1967 28.768215
1967.5 28.574482
1968 28.677034
1968.5 28.628466
1969 28.612387
1969.5 28.716686
1970 28.653523
1970.5 28.766817
1971 28.552312
1971.5 28.904173
1972 28.616747
1972.5 28.824818
1973 28.667539
1973.5 28.836799
1974 28.86723
1974.5 28.733736
1975 28.859448
1975.5 28.704101
1976 28.940406
1976.5 28.677797
1977 28.932774
1977.5 28.716001
1978 28.796056
1978.5 28.759736
1979 28.823644
1979.5 28.869316
1980 28.74741
1980.5 28.96345
1981 28.711435
1981.5 29.003671
1982 28.691173
1982.5 28.94471
1983 28.816533
1983.5 28.889835
1984 28.925425
1984.5 28.911087
1985 28.926134
1985.5 28.855503
1986 29.063201
1986.5 28.877079
1987 29.034126
1987.5 28.829688
1988 28.991318
1988.5 28.969026
1989 28.953227
1989.5 29.060733
1990 28.954443
1990.5 29.011142
1991 28.805411
1991.5 29.052308
1992 28.776571
1992.5 29.120708
1993 28.962138
1993.5 29.116473
1994 29.020768
1994.5 29.029757
1995 29.098073
1995.5 29.024413
1996 29.126871
1996.5 28.905237
1997 29.223341
1997.5 29.070273
1998 29.162779
1998.5 29.050472
1999 29.085159
1999.5 29.180357
2000 29.026935
2000.5 29.156473
2001 29.008159
2001.5 29.272637
2002 29.031903
2002.5 29.179096
2003 29.025516
2003.5 29.163426
2004 29.171166
2004.5 29.154107
2005 29.094344
2005.5 28.972873
2006 29.228294
2006.5 29.1664
2007 29.206097
2007.5 29.033789
2008 29.279363
2008.5 29.209134
2009 29.224813
2009.5 29.205
2010 29.262766
2010.5 29.361224
2011 29.31591
2011.5 29.444575
2012 29.156861
2012.5 29.337451
2013 29.205537
2013.5 29.292801
2014 29.16714
2014.5 29.162177
2015 29.315686
2015.5 29.282299
2016 29.299006
2016.5 29.063001
2017 29.431251
2017.5 29.197177
2018 29.404756
2018.5 29.195172
2019 29.410723
2019.5 29.376355
2020 29.34992
2020.5 29.321346
2021 29.215628
2021.5 29.405144
2022 29.237676
2022.5 29.434434
2023 29.241708
2023.5 29.387224
2024 29.33794
2024.5 29.490677
2025 29.366085
2025.5 29.305112
2026 29.446524
2026.5 29.232112
2027 29.449087
2027.5 29.168314
2028 29.441771
2028.5 29.227597
2029 29.520044
2029.5 29.335913
2030 29.43188
2030.5 29.439688
2031 29.387027
2031.5 29.596549
2032 29.363224
2032.5 29.520908
2033 29.286036
2033.5 29.596081
2034 29.415682
2034.5 29.477224
2035 29.404798
2035.5 29.546529
2036 29.558241
2036.5 29.432458
2037 29.638752
2037.5 29.526517
2038 29.768029
2038.5 29.570642
2039 29.519457
2039.5 29.373786
2040 29.551795
2040.5 29.541183
2041 29.500222
2041.5 29.553398
2042 29.482481
2042.5 29.758266
2043 29.625046
2043.5 29.586428
2044 29.433832
2044.5 29.666713
2045 29.595792
2045.5 29.633036
2046 29.593191
2046.5 29.537728
2047 29.794189
2047.5 29.696932
2048 29.724205
2048.5 29.548696
2049 29.696539
2049.5 29.616365
2050 29.660222
2050.5 29.602697
2051 29.551649
2051.5 29.842058
2052 29.719722
2052.5 29.860118
2053 29.456687
2053.5 29.714799
2054 29.548642
2054.5 29.74126
2055 29.615489
2055.5 29.755539
2056 29.779139
2056.5 29.747552
2057 29.750639
2057.5 29.707116
2058 29.834306
2058.5 29.698297
2059 29.957062
2059.5 29.64884
2060 29.797193
2060.5 29.687193
2061 29.852882
2061.5 29.857561
2062 29.712352
2062.5 29.872757
2063 29.662085
2063.5 29.758406
2064 29.671973
2064.5 29.855031
2065 29.719946
2065.5 29.836369
2066 29.863378
2066.5 29.812926
2067 29.916945
2067.5 29.672945
2068 29.950148
2068.5 29.798293
2069 29.92945
2069.5 29.727349
2070 30.040675
2070.5 29.893026
2071 29.943615
2071.5 29.903045
2072 29.85276
2072.5 29.994139
2073 29.796892
2073.5 30.020484
2074 29.785433
2074.5 30.01208
2075 29.871649
2075.5 30.06056
2076 29.806191
2076.5 29.876158
2077 29.94124
2077.5 29.94085
2078 30.062044
2078.5 29.793569
2079 30.020928
2079.5 29.885003
2080 29.992256
2080.5 29.852745
2081 30.011943
2081.5 29.971775
2082 30.035201
2082.5 30.193791
2083 29.983705
2083.5 30.081508
2084 29.89687
2084.5 30.113104
2085 29.912171
2085.5 30.101526
2086 29.99545
2086.5 30.190745
2087 30.103716
2087.5 29.953963
2088 30.099645
2088.5 29.957494
2089 30.143166
2089.5 29.983193
2090 30.232427
2090.5 29.929394
2091 30.145517
2091.5 30.012214
2092 30.081305
2092.5 30.128968
2093 30.009788
2093.5 30.221063
2094 30.109155
2094.5 30.320331
2095 30.069378
2095.5 30.224845
2096 30.076912
2096.5 30.168715
2097 30.177295
2097.5 30.202109
2098 30.298999
2098.5 30.104336
2099 30.363345
2099.5 30.152619
2100 30.291536
2100.5 29.983026
2101 30.191761
2101.5 30.134258
2102 30.194804
2102.5 30.260769
2103 30.158037
2103.5 30.294275
2104 30.103514
2104.5 30.443934
2105 30.243066
2105.5 30.34116
2106 30.136117
2106.5 30.342799
2107 30.221152
2107.5 30.277339
2108 30.387837
2108.5 30.311421
2109 30.528605
2109.5 30.277833
2110 30.306774
2110.5 30.193067
2111 30.372643
2111.5 30.324617
2112 30.409092
2112.5 30.392244
2113 30.224386
2113.5 30.503139
2114 30.373645
2114.5 30.445006
2115 30.23746
2115.5 30.394182
2116 30.231071
2116.5 30.468431
2117 30.318019
2117.5 30.434239
2118 30.494308
2118.5 30.430809
2119 30.565009
2119.5 30.428103
2120 30.537629
2120.5 30.318055
2121 30.564612
2121.5 30.395344
2122 30.491841
2122.5 30.508876
2123 30.430916
2123.5 30.489811
2124 30.357763
2124.5 30.56457
2125 30.294633
2125.5 30.519748
2126 30.294335
2126.5 30.571449
2127 30.46298
2127.5 30.613083
2128 30.557671
2128.5 30.570328
2129 30.554524
2129.5 30.423763
2130 30.567947
2130.5 30.462036
2131 30.681485
2131.5 30.523771
2132 30.716881
2132.5 30.55892
2133 30.550531
2133.5 30.573744
2134 30.581579
2134.5 30.774519
2135 30.507299
2135.5 30.69053
2136 30.442518
2136.5 30.658913
2137 30.568248
2137.5 30.636245
2138 30.579895
2138.5 30.529165
2139 30.714869
2139.5 30.591604
2140 30.714619
2140.5 30.499455
2141 30.779403
2141.5 30.586627
2142 30.698112
2142.5 30.602673
2143 30.655941
2143.5 30.666131
2144 30.761951
2144.5 30.883914
2145 30.683243
2145.5 30.846837
2146 30.60776
2146.5 30.795777
2147 30.635381
2147.5 30.763939
2148 30.733556
2148.5 30.768266
2149 30.775771
2149.5 30.743223
2150 30.879161
2150.5 30.730081
2151 30.833778
2151.5 30.544755
2152 30.807066
2152.5 30.666789
2153 30.778968
2153.5 30.737355
2154 30.827999
2154.5 30.930018
2155 30.836838
2155.5 30.93718
2156 30.728766
2156.5 30.972108
2157 30.741748
2157.5 31.00611
2158 30.858108
2158.5 30.803916
2159 30.856895
2159.5 30.878043
2160 30.969685
2160.5 30.76697
2161 30.90162
2161.5 30.694249
2162 30.985016
2162.5 30.737925
2163 30.955657
2163.5 30.779573
2164 30.93729
2164.5 31.005847
2165 30.990577
2165.5 31.03213
2166 30.789262
2166.5 31.060117
2167 30.915684
2167.5 31.10567
2168 30.896512
2168.5 31.043091
2169 30.989227
2169.5 30.967242
2170 31.037244
2170.5 30.964419
2171 31.161112
2171.5 31.008506
2172 31.140298
2172.5 30.86549
2173 31.045878
2173.5 30.980462
2174 31.089526
2174.5 31.082213
2175 30.898237
2175.5 31.148854
2176 31.082207
2176.5 31.15105
2177 30.873439
2177.5 31.230903
2178 31.066686
2178.5 31.179109
2179 30.975783
2179.5 31.106427
2180 31.090516
2180.5 31.137842
2181 31.26567
2181.5 31.048948
2182 31.302729
2182.5 31.132343
2183 31.304616
2183.5 31.033516
2184 31.186321
2184.5 31.135032
2185 31.255645
2185.5 31.140915
2186 31.054595
2186.5 31.205139
2187 31.077227
2187.5 31.272271
2188 31.048509
2188.5 31.381616
2189 31.196707
2189.5 31.386653
2190 31.218344
2190.5 31.206986
2191 31.260976
2191.5 31.134647
2192 31.366602
2192.5 31.181377
2193 31.325483
2193.5 31.215212
2194 31.468275
2194.5 31.308797
2195 31.397292
2195.5 31.317908
2196 31.287944
2196.5 31.442526
2197 31.235814
2197.5 31.401712
2198 31.088102
2198.5 31.397203
2199 31.163383
2199.5 31.350446
2200 31.278244
2200.5 31.304356
2201 31.446508
2201.5 31.355503
2202 31.481704
2202.5 31.26058
2203 31.463817
2203.5 31.32737
2204 31.418091
2204.5 31.281072
2205 31.42218
2205.5 31.44486
2206 31.492844
2206.5 31.456894
2207 31.397468
2207.5 31.61422
2208 31.438804
2208.5 31.627786
2209 31.411517
2209.5 31.587642
2210 31.492206
2210.5 31.467098
2211 31.347802
2211.5 31.341711
2212 31.523052
2212.5 31.509423
2213 31.561086
2213.5 31.286642
2214 31.594852
2214.5 31.423646
2215 31.608605
2215.5 31.51949
2216 31.63332
2216.5 31.611025
2217 31.491029
2217.5 31.566387
2218 31.502339
2218.5 31.65136
2219 31.424165
2219.5 31.673563
2220 31.543389
2220.5 31.665379
2221 31.642693
2221.5 31.703565
2222 31.685439
2222.5 31.560248
2223 31.715441
2223.5 31.469983
2224 31.675464
2224.5 31.444845
2225 31.626311
2225.5 31.526518
2226 31.660697
2226.5 31.658089
2227 31.595489
2227.5 31.74215
2228 31.613711
2228.5 31.824118
2229 31.743392
2229.5 31.81946
2230 31.57976
2230.5 31.830183
2231 31.635949
2231.5 31.679904
2232 31.765625
2232.5 31.643796
2233 31.889167
2233.5 31.641892
2234 31.85921
2234.5 31.629354
2235 31.872496
2235.5 31.696159
2236 31.845784
2236.5 31.787294
2237 31.691116
2237.5 31.856951
2238 31.741822
2238.5 31.815413
2239 31.584311
2239.5 31.862766
2240 31.736028
2240.5 31.868535
2241 31.746787
2241.5 31.927276
2242 31.848782
2242.5 31.897631
2243 32.009381
2243.5 31.841472
2244 31.930208
2244.5 31.795058
2245 31.937671
2245.5 31.788617
2246 31.829879
2246.5 31.750768
2247 31.925926
2247.5 31.902465
2248 31.79903
2248.5 31.928051
2249 31.810722
2249.5 32.019937
2250 31.798989
2250.5 31.954575
2251 31.793123
2251.5 31.951427
2252 31.86281
2252.5 31.934661
2253 31.943476
2253.5 31.783149
2254 32.052621
2254.5 31.903365
2255 32.123405
2255.5 31.91424
2256 32.172674
2256.5 31.949833
2257 31.965256
2257.5 31.964731
2258 31.973645
2258.5 32.077089
2259 31.819341
2259.5 32.144031
2260 31.927624
2260.5 32.099018
2261 32.020977
2261.5 32.172355
2262 31.931818
2262.5 32.027242
2263 32.019493
2263.5 31.953973
2264 32.02346
2264.5 31.815836
2265 32.146397
2265.5 32.02433
2266 32.139903
2266.5 31.964737
2267 32.167763
2267.5 32.136181
2268 32.155728
2268.5 32.247958
2269 31.985474
2269.5 32.231155
2270 32.01575
2270.5 32.178825
2271 31.977323
2271.5 32.179609
2272 32.049689
2272.5 32.142857
2273 32.136574
2273.5 32.089335
2274 32.230672
2274.5 32.100886
2275 32.382935
2275.5 32.057977
2276 32.231402
2276.5 32.029322
2277 32.21187
2277.5 32.095179
2278 32.203117
2278.5 32.176518
2279 32.13183
2279.5 32.248098
2280 32.131046
2280.5 32.350188
2281 32.141197
2281.5 32.389662
2282 32.287225
2282.5 32.33647
2283 32.302886
2283.5 32.278633
2284 32.204279
2284.5 32.05902
2285 32.332221
2285.5 32.10938
2286 32.357857
2286.5 32.137626
2287 32.36101
2287.5 32.194588
2288 32.393292
2288.5 32.398188
2289 32.372558
2289.5 32.367748
2290 32.196715
2290.5 32.427576
2291 32.234272
2291.5 32.403499
2292 32.264107
2292.5 32.487106
2293 32.319993
2293.5 32.354754
2294 32.336256
2294.5 32.33045
2295 32.508367
2295.5 32.302803
2296 32.518795
2296.5 32.326114
2297 32.515481
2297.5 32.244366
2298 32.417855
2298.5 32.358176
2299 32.309392
2299.5 32.414359
2300 32.343191
2300.5 32.515025
2301 32.262444
2301.5 32.538447
2302 32.341525
2302.5 32.564342
2303 32.358849
2303.5 32.551563
2304 32.522628
2304.5 32.491466
2305 32.619959
2305.5 32.554641
2306 32.697934
2306.5 32.431459
2307 32.510993
2307.5 32.381082
2308 32.522702
2308.5 32.474205
2309 32.586873
2309.5 32.581252
2310 32.471535
2310.5 32.658574
2311 32.468107
2311.5 32.635048
2312 32.455838
2312.5 32.685784
2313 32.496709
2313.5 32.726127
2314 32.605621
2314.5 32.548678
2315 32.708329
2315.5 32.485592
2316 32.691041
2316.5 32.517439
2317 32.698715
2317.5 32.533431
2318 32.748151
2318.5 32.573676
2319 32.599157
2319.5 32.707837
2320 32.659182
2320.5 32.744414
2321 32.553056
2321.5 32.797033
2322 32.562912
2322.5 32.843649
2323 32.60265
2323.5 32.879654
2324 32.821628
2324.5 32.776037
2325 32.76597
2325.5 32.712415
2326 32.778752
2326.5 32.643738
2327 32.867947
2327.5 32.728395
2328 32.905665
2328.5 32.713032
2329 32.816786
2329.5 32.815501
2330 32.738173
2330.5 32.863617
2331 32.707635
2331.5 32.958677
2332 32.782763
2332.5 32.958043
2333 32.677588
2333.5 32.891104
2334 32.859451
2334.5 32.90596
2335 32.954571
2335.5 32.803848
2336 32.934916
2336.5 32.809728
2337 32.910603
2337.5 32.701564
2338 33.01838
2338.5 32.893813
2339 32.949445
2339.5 32.915694
2340 32.916856
2340.5 32.981074
2341 32.931215
2341.5 33.091998
2342 32.882202
2342.5 33.105907
2343 32.936576
2343.5 33.045098
2344 33.03656
2344.5 33.031839
2345 33.005676
2345.5 33.001935
2346 32.996026
2346.5 32.832691
2347 33.100694
2347.5 32.826114
2348 33.088192
2348.5 32.883918
2349 33.101752
2349.5 32.976475
2350 33.103371
2350.5 33.105317
2351 33.066797
2351.5 33.203819
2352 32.998559
2352.5 33.274958
2353 33.102942
2353.5 33.231661
2354 33.055887
2354.5 33.161566
2355 33.153248
2355.5 33.049485
2356 33.165661
2356.5 33.060706
2357 33.227077
2357.5 32.990029
2358 33.212346
2358.5 33.00676
2359 33.26647
2359.5 33.14122
2360 33.202252
2360.5 33.193919
2361 33.087802
2361.5 33.360144
2362 33.173618
2362.5 33.266333
2363 33.062711
2363.5 33.370611
2364 33.199584
2364.5 33.211941
2365 33.212665
2365.5 33.286348
2366 33.290076
2366.5 33.207601
2367 33.377942
2367.5 33.169553
2368 33.437175
2368.5 33.203968
2369 33.396062
2369.5 33.211997
2370 33.274671
2370.5 33.292454
2371 33.297431
2371.5 33.314794
2372 33.08928
2372.5 33.411795
2373 33.24064
2373.5 33.395374
2374 33.214799
2374.5 33.418837
2375 33.357874
2375.5 33.378616
2376 33.450645
2376.5 33.364841
2377 33.531418
2377.5 33.372864
2378 33.555567
2378.5 33.328256
2379 33.473989
2379.5 33.358759
2380 33.493933
2380.5 33.339587
2381 33.348206
2381.5 33.441561
2382 33.330765
2382.5 33.493069
2383 33.238882
2383.5 33.501628
2384 33.301741
2384.5 33.600017
2385 33.429414
2385.5 33.587027
2386 33.551657
2386.5 33.548778
2387 33.599529
2387.5 33.41541
2388 33.636439
2388.5 33.467707
2389 33.656579
2389.5 33.474189
2390 33.639741
2390.5 33.569396
2391 33.623371
2391.5 33.650318
2392 33.5401
2392.5 33.683169
2393 33.402443
2393.5 33.637089
2394 33.481196
2394.5 33.690092
2395 33.490688
2395.5 33.689231
2396 33.692974
2396.5 33.573854
2397 33.605233
2397.5 33.432856
2398 33.731347
2398.5 33.552921
2399 33.730212
2399.5 33.56117
2400 33.733964
2400.5 33.580771
2401 33.679062
2401.5 33.680394
2402 33.69298
2402.5 33.78264
2403 33.697936
2403.5 33.902335
2404 33.659124
2404.5 33.781722
2405 33.655557
2405.5 33.731949
2406 33.617747
2406.5 33.645523
2407 33.804682
2407.5 33.7677
2408 33.828941
2408.5 33.548912
2409 33.900177
2409.5 33.659852
2410 33.905539
2410.5 33.798894
2411 33.951944
2411.5 33.826083
2412 33.80684
2412.5 33.860233
2413 33.8009
2413.5 33.906761
2414 33.752435
2414.5 33.941498
2415 33.763096
2415.5 34.008592
2416 33.858767
2416.5 34.042645
2417 33.911571
2417.5 33.726645
2418 33.921906
2418.5 33.724472
2419 33.912474
2419.5 33.749577
2420 33.977038
2420.5 33.772692
2421 33.979335
2421.5 33.851156
2422 33.977041
2422.5 33.949426
2423 33.860427
2423.5 34.13347
2424 33.931416
2424.5 34.080532
2425 33.850932
2425.5 34.053016
2426 33.94925
2426.5 33.997506
2427 33.98374
2427.5 33.944124
2428 34.087476
2428.5 33.933908
2429 34.146339
2429.5 33.865038
2430 34.139824
2430.5 33.980614
2431 34.111345
2431.5 33.906281
2432 33.976033
2432.5 34.04955
2433 34.102994
2433.5 34.153599
2434 33.872208
2434.5 34.165224
2435 34.02175
2435.5 34.178698
2436 34.028581
2436.5 34.224188
2437 34.110588
2437.5 34.102654
2438 34.119099
2438.5 34.059119
2439 34.189361
2439.5 34.028345
2440 34.249422
2440.5 34.107921
2441 34.213376
2441.5 34.145921
2442 34.240136
2442.5 34.093571
2443 34.01643
2443.5 34.228075
2444 34.11819
2444.5 34.310937
2445 33.996564
2445.5 34.321854
2446 34.076867
2446.5 34.291238
2447 34.062213
2447.5 34.190506
2448 34.153256
2448.5 34.218177
2449 34.371239
2449.5 34.243387
2450 34.391972
2450.5 34.197369
2451 34.334812
2451.5 34.211206
2452 34.286195
2452.5 34.243879
2453 34.302664
2453.5 34.299061
2454 34.169701
2454.5 34.358624
2455 34.20004
2455.5 34.425852
2456 34.164557
2456.5 34.421155
2457 34.317747
2457.5 34.468323
2458 34.330186
2458.5 34.289917
2459 34.337226
2459.5 34.237123
2460 34.476021
2460.5 34.303045
2461 34.498817
2461.5 34.339228
2462 34.566015
2462.5 34.443232
2463 34.339914
2463.5 34.450302
2464 34.34999
2464.5 34.51561
2465 34.290871
2465.5 34.544134
2466 34.270421
2466.5 34.481338
2467 34.365484
2467.5 34.450752
2468 34.479469
2468.5 34.311604
2469 34.545261
2469.5 34.434667
2470 34.502876
2470.5 34.334564
2471 34.65369
2471.5 34.438312
2472 34.629452
2472.5 34.517261
2473 34.569925
2473.5 34.557274
2474 34.508225
2474.5 34.601533
2475 34.462866
2475.5 34.691066
2476 34.458065
2476.5 34.628263
2477 34.461355
2477.5 34.572849
2478 34.651807
2478.5 34.675282
2479 34.594694
2479.5 34.492174
2480 34.686938
2480.5 34.484202
2481 34.711751
2481.5 34.52329
2482 34.760541
2482.5 34.608692
2483 34.701347
2483.5 34.631824
2484 34.654453
2484.5 34.725702
2485 34.612873
2485.5 34.852281
2486 34.637547
2486.5 34.769073
2487 34.581777
2487.5 34.773082
2488 34.610912
2488.5 34.62241
2489 34.732965
2489.5 34.646872
2490 34.756452
2490.5 34.49187
2491 34.724876
2491.5 34.503916
2492 34.792253
2492.5 34.582704
2493 34.815878
2493.5 34.787405
2494 34.819651
2494.5 34.933496
2495 34.813386
2495.5 34.936914
2496 34.73177
2496.5 35.018978
2497 34.900638
2497.5 35.055566
2498 34.856549
2498.5 34.844953
2499 34.840479
2499.5 34.784797
2500 34.960917
2500.5 34.684655
2501 34.928098
2501.5 34.80925
2502 34.971371
2502.5 34.580937
2503 34.864339
2503.5 34.851059
2504 34.895867
2504.5 34.938604
2505 34.735966
2505.5 35.059819
2506 34.913582
2506.5 34.980091
2507 34.801197
2507.5 35.118344
2508 34.853685
2508.5 34.950835
2509 34.937626
2509.5 34.92792
2510 34.997407
2510.5 34.889105
2511 35.044038
2511.5 34.85688
2512 35.025209
2512.5 34.913111
2513 34.959173
2513.5 34.900215
2514 34.858719
2514.5 35.03494
2515 35.049528
2515.5 35.096312
2516 34.858915
2516.5 35.182762
2517 35.034993
2517.5 35.24625
2518 35.013828
2518.5 35.140988
2519 35.122335
2519.5 35.13276
2520 35.17575
2520.5 35.019857
2521 35.199383
2521.5 34.994093
2522 35.330263
2522.5 35.026175
2523 35.085812
2523.5 35.073549
2524 35.169834
2524.5 35.241535
2525 35.064089
2525.5 35.242042
2526 35.079333
2526.5 35.349089
2527 35.108474
2527.5 35.26035
2528 35.071829
2528.5 35.158911
2529 35.08952
2529.5 35.185346
2530 35.052195
2530.5 34.950101
2531 35.19527
2531.5 35.060331
2532 35.279748
2532.5 35.175937
2533 35.471559
2533.5 35.251126
2534 35.295308
2534.5 35.272416
2535 35.361317
2535.5 35.510227
2536 35.290831
2536.5 35.47852
2537 35.317987
2537.5 35.517585
2538 35.318479
2538.5 35.330048
2539 35.185617
2539.5 35.264519
2540 35.34776
2540.5 35.245368
2541 35.342583
2541.5 35.105443
2542 35.349655
2542.5 35.241374
2543 35.359949
2543.5 35.243249
2544 35.433832
2544.5 35.444283
2545 35.397997
2545.5 35.466874
2546 35.294116
2546.5 35.435003
2547 35.210145
2547.5 35.359609
2548 35.16033
2548.5 35.299769
2549 35.269317
2549.5 35.314679
2550 35.386214
2550.5 35.358176
2551 35.55862
2551.5 35.372156
2552 35.617295
2552.5 35.401931
2553 35.578915
2553.5 35.481995
2554 35.749269
2554.5 35.635322
2555 35.619208
2555.5 35.640603
2556 35.550985
2556.5 35.617149
2557 35.45796
2557.5 35.789269
2558 35.289833
2558.5 35.598376
2559 35.339028
2559.5 35.336944
2560 35.393402
2560.5 35.459545
2561 35.421589
2561.5 35.274667
2562 35.698706
2562.5 35.406998
2563 35.566509
2563.5 35.488594
2564 35.671672
2564.5 35.616475
2565 35.707524
2565.5 35.74475
2566 35.684636
2566.5 35.745069
2567 35.493749
2567.5 35.762966
2568 35.570362
2568.5 35.637566
2569 35.461539
2569.5 35.680461
2570 35.556212
2570.5 35.450745
2571 35.55069
2571.5 35.401401
2572 35.541317
2572.5 35.486692
2573 35.831317
2573.5 35.517225
2574 35.697511
2574.5 35.626131
2575 35.649377
2575.5 35.664973
2576 35.478026
2576.5 35.844377
2577 35.693061
2577.5 35.923454
2578 35.568434
2578.5 35.751751
2579 35.553274
2579.5 35.630485
2580 35.567763
2580.5 35.685632
2581 35.755408
2581.5 35.635996
2582 35.663456
2582.5 35.417131
2583 35.609469
2583.5 35.528138
2584 35.775393
2584.5 35.691753
2585 35.763147
2585.5 35.896391
2586 35.846674
2586.5 35.975477
2587 35.775214
2587.5 36.094159
2588 35.855526
2588.5 35.988444
2589 35.686761
2589.5 35.840705
2590 35.691279
2590.5 35.769966
2591 35.806873
2591.5 35.734478
2592 35.929957
2592.5 35.657439
2593 35.925317
2593.5 35.72146
2594 35.920048
2594.5 35.802522
2595 35.866061
2595.5 35.80108
2596 35.778365
2596.5 36.079133
2597 35.945284
2597.5 36.244485
2598 35.951468
2598.5 36.142436
2599 35.940298
2599.5 36.122042
2600 35.944214
2600.5 35.989547
2601 35.997456
2601.5 35.893929
2602 36.080191
2602.5 35.770217
2603 36.071044
2603.5 35.714868
2604 36.031458
2604.5 35.941252
2605 35.953563
2605.5 35.976845
2606 35.925511
2606.5 36.16412
2607 35.921106
2607.5 36.052844
2608 35.950956
2608.5 36.261484
2609 36.090297
2609.5 36.28892
2610 36.280781
2610.5 36.139098
2611 36.198899
2611.5 36.131221
2612 36.239919
2612.5 35.914123
2613 36.234131
2613.5 36.15357
2614 36.278898
2614.5 36.010036
2615 36.097345
2615.5 36.06258
2616 35.977721
2616.5 36.280328
2617 36.128828
2617.5 36.412856
2618 36.201352
2618.5 36.36159
2619 36.23001
2619.5 36.411965
2620 36.258358
2620.5 36.289918
2621 36.420101
2621.5 36.333776
2622 36.386719
2622.5 36.242265
2623 36.475947
2623.5 36.265951
2624 36.389235
2624.5 36.292663
2625 36.347857
2625.5 36.327183
2626 36.112162
2626.5 36.24832
2627 36.105973
2627.5 36.176595
2628 35.926294
2628.5 36.117128
2629 35.994303
2629.5 36.173934
2630 36.182165
2630.5 36.109218
2631 36.264578
2631.5 35.991994
2632 36.366585
2632.5 36.158752
2633 36.449233
2633.5 36.306256
2634 36.66085
2634.5 36.431941
2635 36.44754
2635.5 36.638409
2636 36.605436
2636.5 36.745599
2637 36.486515
2637.5 36.637691
2638 36.416757
2638.5 36.579546
2639 36.367026
2639.5 36.541522
2640 36.418709
2640.5 36.368683
2641 36.460808
2641.5 36.411682
2642 36.519101
2642.5 36.347127
2643 36.645672
2643.5 36.472884
2644 36.656871
2644.5 36.597994
2645 36.719048
2645.5 36.713725
2646 36.686647
2646.5 36.81446
2647 36.662331
2647.5 36.740744
2648 36.542323
2648.5 36.676818
2649 36.541688
2649.5 36.671501
2650 36.576688
2650.5 36.576414
2651 36.6611
2651.5 36.360192
2652 36.63514
2652.5 36.439463
2653 36.624715
2653.5 36.381757
2654 36.672083
2654.5 36.564565
2655 36.716378
2655.5 36.731845
2656 36.728594
2656.5 36.796126
2657 36.607829
2657.5 36.879319
2658 36.620271
2658.5 36.794132
2659 36.630514
2659.5 36.841601
2660 36.723581
2660.5 36.664838
2661 36.83373
2661.5 36.606273
2662 36.665756
2662.5 36.377621
2663 36.684692
2663.5 36.417767
2664 36.649904
2664.5 36.583912
2665 36.581972
2665.5 36.649808
2666 36.621928
2666.5 36.651257
2667 36.521691
2667.5 36.719939
2668 36.496052
2668.5 36.753801
2669 36.597285
2669.5 36.744666
2670 36.708346
2670.5 36.790371
2671 36.936063
2671.5 36.623931
2672 36.75288
2672.5 36.570448
2673 36.775538
2673.5 36.546826
2674 36.760178
2674.5 36.639434
2675 36.773902
2675.5 36.799371
2676 36.724252
2676.5 36.806279
2677 36.520723
2677.5 36.750576
2678 36.667645
2678.5 36.772832
2679 36.628923
2679.5 36.754784
2680 36.741173
2680.5 36.72981
2681 36.910003
2681.5 36.821282
2682 37.063882
2682.5 36.849114
2683 37.080094
2683.5 36.827168
2684 36.993361
2684.5 36.923882
2685 37.050381
2685.5 37.024245
2686 36.928311
2686.5 37.090224
2687 37.13381
2687.5 37.264457
2688 36.98003
2688.5 37.155128
2689 36.956877
2689.5 37.018353
2690 36.987343
2690.5 36.985517
2691 37.128696
2691.5 37.001172
2692 37.142688
2692.5 36.887702
2693 37.135854
2693.5 36.983502
2694 37.091637
2694.5 36.959758
2695 36.988583
2695.5 37.073058
2696 37.011439
2696.5 37.109113
2697 36.966309
2697.5 37.255809
2698 36.966383
2698.5 37.370822
2699 37.176642
2699.5 37.438008
2700 37.335512
2700.5 37.345287
2701 37.328956
2701.5 37.182978
2702 37.293205
2702.5 37.099814
2703 37.339208
2703.5 37.114337
2704 37.236914
2704.5 37.197003
2705 37.275076
2705.5 37.27445
2706 37.086335
2706.5 37.202168
2707 37.10151
2707.5 37.274101
2708 36.892489
2708.5 37.161726
2709 37.08998
2709.5 37.277955
2710 37.183049
2710.5 37.198722
2711 37.217796
2711.5 37.071228
2712 37.400195
2712.5 37.247124
2713 37.490898
2713.5 37.348056
2714 37.499404
2714.5 37.3124
2715 37.312326
2715.5 37.322509
2716 37.340111
2716.5 37.503931
2717 37.205127
2717.5 37.384674
2718 37.114447
2718.5 37.326834
2719 36.935377
2719.5 37.175637
2720 37.059551
2720.5 37.117559
2721 37.219679
2721.5 37.120032
2722 37.20974
2722.5 36.980855
2723 37.262547
2723.5 37.091628
2724 37.29935
2724.5 37.175941
2725 37.33336
2725.5 37.539104
2726 37.410975
2726.5 37.55385
2727 37.382197
2727.5 37.610075
2728 37.619066
2728.5 37.77993
2729 37.462336
2729.5 37.546954
2730 37.499854
2730.5 37.588474
2731 37.474737
2731.5 37.343615
2732 37.644732
2732.5 37.441853
2733 37.518996
2733.5 37.283042
2734 37.549913
2734.5 37.257898
2735 37.422308
2735.5 37.398461
2736 37.415746
2736.5 37.402809
2737 37.335697
2737.5 37.555784
2738 37.306255
2738.5 37.513629
2739 37.382823
2739.5 37.577915
2740 37.448189
2740.5 37.470233
2741 37.477562
2741.5 37.359673
2742 37.519342
2742.5 37.310392
2743 37.498218
2743.5 37.272552
2744 37.716734
2744.5 37.545314
2745 37.739295
2745.5 37.718612
2746 37.7312
2746.5 37.677893
2747 37.592492
2747.5 37.706041
2748 37.426656
2748.5 37.74541
2749 37.546477
2749.5 37.648898
2750 37.552577
2750.5 37.686813
2751 37.65595
2751.5 37.584439
2752 37.717062
2752.5 37.569183
2753 37.767807
2753.5 37.53534
2754 37.765518
2754.5 37.455434
2755 37.605977
2755.5 37.601247
2756 37.543195
2756.5 37.511614
2757 37.394157
2757.5 37.653545
2758 37.512717
2758.5 37.648627
2759 37.482023
2759.5 37.806511
2760 37.618798
2760.5 37.767044
2761 37.79121
2761.5 37.676755
2762 37.861335
2762.5 37.662452
2763 37.73762
2763.5 37.505135
2764 37.671357
2764.5 37.508208
2765 37.679359
2765.5 37.621295
2766 37.556002
2766.5 37.710738
2767 37.692654
2767.5 37.750396
2768 37.586421
2768.5 37.914443
2769 37.675405
2769.5 37.9419
2770 37.7985
2770.5 37.926111
2771 37.943488
2771.5 37.922242
2772 38.036183
2772.5 37.854326
2773 37.953421
2773.5 37.7615
2774 37.953708
2774.5 37.755871
2775 37.890744
2775.5 37.80207
2776 37.884095
2776.5 37.828666
2777 37.745932
2777.5 37.978214
2778 37.786356
2778.5 37.938485
2779 37.71525
2779.5 37.844351
2780 37.679619
2780.5 37.805608
2781 37.663028
2781.5 37.676227
2782 37.760046
2782.5 37.705934
2783 37.912992
2783.5 37.732336
2784 38.057336
2784.5 37.77906
2785 38.041422
2785.5 37.919936
2786 37.884498
2786.5 37.971726
2787 37.932059
2787.5 38.046846
2788 37.805766
2788.5 38.054508
2789 37.764385
2789.5 38.054702
2790 37.973911
2790.5 38.039359
2791 37.986183
2791.5 38.053462
2792 38.282594
2792.5 38.137564
2793 38.305682
2793.5 38.075343
2794 38.2135
2794.5 38.095528
2795 38.254669
2795.5 37.975842
2796 38.049105
2796.5 38.009435
2797 37.945029
2797.5 38.13619
2798 37.817103
2798.5 38.094991
2799 37.84456
2799.5 38.168734
2800 37.989464
##END=
