##TITLE= W6900m-3mm-270824
##JCAMP-DX= 4.24
##DATA TYPE= UV/VIS SPECTRUM
##ORIGIN=  Lambda-SPX/P Scan
##OWNER= Optiplex/OPTIPLEX-755
##DATE= 27.08.2024 15:59:44
##SPECTROMETER/DATA SYSTEM= Lambda 19 UV/Vis/NIR
##SAMPLE DESCRIPTION= 270824
##DELTAX= 0.5
##XUNITS= NANOMETERS
##YUNITS= TRANSMITTANCE
$$COMMENT= RTUNITS 0-1
##XFACTOR= 1.0
##YFACTOR= 0.01
##FIRSTX= 200
##LASTX= 2800
##NPOINTS= 5201
##FIRSTY= 0.001078
##MAXY= 0.372842
##MINY= 0.001078
##XYDATA= (XY..XY)
200 0.107835
200.5 0.125635
201 0.111906
201.5 0.125376
202 0.11874
202.5 0.127862
203 0.127963
203.5 0.128157
204 0.134199
204.5 0.140103
205 0.143235
205.5 0.14001
206 0.165427
206.5 0.145356
207 0.164077
207.5 0.158763
208 0.161427
208.5 0.168351
209 0.190596
209.5 0.184927
210 0.180228
210.5 0.195175
211 0.195516
211.5 0.213421
212 0.216185
212.5 0.224629
213 0.213345
213.5 0.240206
214 0.233257
214.5 0.246791
215 0.26276
215.5 0.265484
216 0.288311
216.5 0.29114
217 0.30532
217.5 0.314992
218 0.340342
218.5 0.345738
219 0.358789
219.5 0.379156
220 0.400194
220.5 0.42328
221 0.442247
221.5 0.465295
222 0.485518
222.5 0.537072
223 0.541394
223.5 0.585576
224 0.608258
224.5 0.647705
225 0.677275
225.5 0.725321
226 0.757517
226.5 0.792372
227 0.854896
227.5 0.892824
228 0.937324
228.5 0.974297
229 1.04151
229.5 1.093897
230 1.141536
230.5 1.181389
231 1.23456
231.5 1.297735
232 1.337453
232.5 1.381203
233 1.41995
233.5 1.472604
234 1.487264
234.5 1.540599
235 1.549926
235.5 1.592486
236 1.613009
236.5 1.646384
237 1.652361
237.5 1.660758
238 1.682584
238.5 1.684314
239 1.708072
239.5 1.706207
240 1.703355
240.5 1.719172
241 1.724887
241.5 1.719447
242 1.722153
242.5 1.722094
243 1.712101
243.5 1.709563
244 1.705401
244.5 1.708702
245 1.706348
245.5 1.707053
246 1.688662
246.5 1.679716
247 1.681224
247.5 1.675397
248 1.671199
248.5 1.661039
249 1.651747
249.5 1.642327
250 1.640975
250.5 1.631337
251 1.63371
251.5 1.626026
252 1.612187
252.5 1.600274
253 1.59763
253.5 1.598684
254 1.577962
254.5 1.588777
255 1.565712
255.5 1.557505
256 1.547718
256.5 1.552881
257 1.555271
257.5 1.535592
258 1.531622
258.5 1.511214
259 1.526746
259.5 1.515241
260 1.506882
260.5 1.501575
261 1.517314
261.5 1.496383
262 1.497827
262.5 1.4829
263 1.482088
263.5 1.48002
264 1.46883
264.5 1.469318
265 1.466177
265.5 1.459247
266 1.450273
266.5 1.447666
267 1.443404
267.5 1.44463
268 1.444751
268.5 1.419663
269 1.434129
269.5 1.411002
270 1.430048
270.5 1.416432
271 1.427059
271.5 1.409891
272 1.424451
272.5 1.414016
273 1.413558
273.5 1.417921
274 1.412899
274.5 1.419473
275 1.411488
275.5 1.434371
276 1.413647
276.5 1.406739
277 1.411168
277.5 1.411864
278 1.412691
278.5 1.407063
279 1.429114
279.5 1.394922
280 1.414291
280.5 1.391398
281 1.426677
281.5 1.401282
282 1.417033
282.5 1.411258
283 1.416513
283.5 1.42635
284 1.406586
284.5 1.426798
285 1.422944
285.5 1.429281
286 1.433134
286.5 1.441714
287 1.444386
287.5 1.44547
288 1.446017
288.5 1.456227
289 1.452808
289.5 1.46046
290 1.468136
290.5 1.45506
291 1.479697
291.5 1.489387
292 1.496931
292.5 1.492542
293 1.52096
293.5 1.514554
294 1.536329
294.5 1.549023
295 1.548813
295.5 1.581408
296 1.569747
296.5 1.614485
297 1.609412
297.5 1.626772
298 1.624153
298.5 1.65084
299 1.67211
299.5 1.682861
300 1.693562
300.5 1.708616
301 1.741977
301.5 1.728935
302 1.75787
302.5 1.769514
303 1.789609
303.5 1.814156
304 1.825227
304.5 1.843849
305 1.865285
305.5 1.897923
306 1.903546
306.5 1.943309
307 1.93713
307.5 1.971448
308 1.973099
308.5 2.006471
309 2.027968
309.5 2.042314
310 2.06127
310.5 2.080184
311 2.122196
311.5 2.147753
312 2.171506
312.5 2.187592
313 2.229841
313.5 2.260804
314 2.26875
314.5 2.289663
315 2.313036
315.5 2.367851
316 2.356575
316.5 2.403821
317 2.408232
317.5 2.472039
318 2.476304
318.5 2.517608
319 2.495142
319.5 2.634876
320 2.655668
320.5 2.681721
321 2.720225
321.5 2.758927
322 2.767981
322.5 2.808167
323 2.837736
323.5 2.877964
324 2.895372
324.5 2.924641
325 2.951541
325.5 2.96963
326 3.00866
326.5 3.013373
327 3.046499
327.5 3.113002
328 3.108644
328.5 3.148197
329 3.158242
329.5 3.183081
330 3.243154
330.5 3.250246
331 3.266551
331.5 3.307553
332 3.333234
332.5 3.339931
333 3.391239
333.5 3.398225
334 3.422349
334.5 3.476131
335 3.464843
335.5 3.509653
336 3.528955
336.5 3.554311
337 3.584553
337.5 3.593166
338 3.652482
338.5 3.659577
339 3.681437
339.5 3.696861
340 3.724998
340.5 3.751339
341 3.780005
341.5 3.797927
342 3.811586
342.5 3.846743
343 3.836437
343.5 3.897877
344 3.909711
344.5 3.910974
345 3.921345
345.5 3.972319
346 3.991337
346.5 4.040613
347 4.024129
347.5 4.046496
348 4.044792
348.5 4.08627
349 4.093617
349.5 4.102504
350 4.143908
350.5 4.156935
351 4.176467
351.5 4.161758
352 4.216949
352.5 4.251882
353 4.242895
353.5 4.257371
354 4.246973
354.5 4.288317
355 4.278562
355.5 4.325542
356 4.328765
356.5 4.360155
357 4.363719
357.5 4.391041
358 4.394114
358.5 4.395473
359 4.422915
359.5 4.424069
360 4.437939
360.5 4.442353
361 4.468632
361.5 4.479158
362 4.506522
362.5 4.509579
363 4.501681
363.5 4.525547
364 4.568908
364.5 4.549972
365 4.576589
365.5 4.602879
366 4.602132
366.5 4.639318
367 4.64231
367.5 4.656245
368 4.691653
368.5 4.710113
369 4.712367
369.5 4.71996
370 4.762705
370.5 4.786345
371 4.816657
371.5 4.827847
372 4.857696
372.5 4.882284
373 4.931579
373.5 4.950127
374 4.956056
374.5 5.013506
375 5.026432
375.5 5.07573
376 5.078298
376.5 5.132819
377 5.14923
377.5 5.220735
378 5.215144
378.5 5.232753
379 5.312379
379.5 5.349342
380 5.367622
380.5 5.416021
381 5.432856
381.5 5.470825
382 5.517754
382.5 5.544453
383 5.59649
383.5 5.600759
384 5.665347
384.5 5.686996
385 5.705266
385.5 5.769573
386 5.792237
386.5 5.854904
387 5.837155
387.5 5.881573
388 5.931992
388.5 5.907103
389 5.981698
389.5 5.979862
390 6.020436
390.5 6.046849
391 6.093035
391.5 6.119893
392 6.126224
392.5 6.168498
393 6.162389
393.5 6.174009
394 6.209859
394.5 6.242076
395 6.241911
395.5 6.306326
396 6.294077
396.5 6.320599
397 6.35213
397.5 6.349419
398 6.370409
398.5 6.379593
399 6.391548
399.5 6.411617
400 6.434859
400.5 6.41188
401 6.427506
401.5 6.432
402 6.451687
402.5 6.461573
403 6.52073
403.5 6.485847
404 6.500813
404.5 6.476346
405 6.491406
405.5 6.550987
406 6.5299
406.5 6.558491
407 6.567497
407.5 6.535595
408 6.557427
408.5 6.521448
409 6.557897
409.5 6.550379
410 6.563538
410.5 6.565102
411 6.567702
411.5 6.533924
412 6.571038
412.5 6.567229
413 6.562112
413.5 6.570379
414 6.574871
414.5 6.593718
415 6.580565
415.5 6.585258
416 6.580843
416.5 6.551598
417 6.561024
417.5 6.558476
418 6.568179
418.5 6.580541
419 6.573094
419.5 6.541377
420 6.561264
420.5 6.546381
421 6.528261
421.5 6.51601
422 6.530914
422.5 6.543614
423 6.509207
423.5 6.529083
424 6.465776
424.5 6.494223
425 6.514424
425.5 6.512101
426 6.472559
426.5 6.493995
427 6.46948
427.5 6.471669
428 6.461208
428.5 6.462589
429 6.443218
429.5 6.412481
430 6.4586
430.5 6.420437
431 6.402634
431.5 6.396881
432 6.386944
432.5 6.380382
433 6.357764
433.5 6.378468
434 6.340808
434.5 6.330172
435 6.337588
435.5 6.330645
436 6.312604
436.5 6.323271
437 6.285502
437.5 6.259899
438 6.269075
438.5 6.2535
439 6.25466
439.5 6.212056
440 6.236674
440.5 6.234627
441 6.198832
441.5 6.178534
442 6.195413
442.5 6.194619
443 6.181858
443.5 6.195214
444 6.147463
444.5 6.180378
445 6.147972
445.5 6.174374
446 6.120529
446.5 6.126323
447 6.14996
447.5 6.146496
448 6.135377
448.5 6.133182
449 6.135812
449.5 6.121165
450 6.104475
450.5 6.124369
451 6.101061
451.5 6.108426
452 6.102329
452.5 6.116876
453 6.133667
453.5 6.13811
454 6.094628
454.5 6.12006
455 6.107143
455.5 6.113282
456 6.147043
456.5 6.131111
457 6.138787
457.5 6.141133
458 6.145475
458.5 6.144657
459 6.142185
459.5 6.133503
460 6.143858
460.5 6.141664
461 6.164308
461.5 6.185239
462 6.211164
462.5 6.209941
463 6.175288
463.5 6.205598
464 6.203848
464.5 6.212971
465 6.186475
465.5 6.231489
466 6.248483
466.5 6.244644
467 6.24261
467.5 6.261416
468 6.238618
468.5 6.263831
469 6.289332
469.5 6.297293
470 6.291254
470.5 6.296135
471 6.306198
471.5 6.295026
472 6.329784
472.5 6.312858
473 6.343558
473.5 6.354285
474 6.363207
474.5 6.370276
475 6.373349
475.5 6.394873
476 6.382725
476.5 6.401286
477 6.418496
477.5 6.427499
478 6.427802
478.5 6.439262
479 6.465348
479.5 6.463135
480 6.492782
480.5 6.493931
481 6.506368
481.5 6.527179
482 6.530391
482.5 6.537154
483 6.55193
483.5 6.574893
484 6.588107
484.5 6.594361
485 6.585146
485.5 6.617609
486 6.612596
486.5 6.650694
487 6.658933
487.5 6.653785
488 6.672646
488.5 6.68174
489 6.679507
489.5 6.693006
490 6.698176
490.5 6.709053
491 6.730733
491.5 6.728572
492 6.734956
492.5 6.74378
493 6.770037
493.5 6.780345
494 6.745141
494.5 6.781314
495 6.786675
495.5 6.797884
496 6.811452
496.5 6.818145
497 6.829743
497.5 6.837911
498 6.855404
498.5 6.840816
499 6.8469
499.5 6.856042
500 6.895319
500.5 6.884589
501 6.905033
501.5 6.905565
502 6.927288
502.5 6.902841
503 6.902537
503.5 6.937581
504 6.933913
504.5 6.937096
505 6.951918
505.5 6.956906
506 6.966186
506.5 6.965919
507 6.970801
507.5 6.984638
508 6.980585
508.5 6.996088
509 6.994756
509.5 7.014774
510 7.007384
510.5 7.018378
511 7.026428
511.5 7.040876
512 7.055024
512.5 7.065519
513 7.078329
513.5 7.086866
514 7.100813
514.5 7.109925
515 7.100326
515.5 7.125176
516 7.132709
516.5 7.146431
517 7.143843
517.5 7.161643
518 7.15846
518.5 7.17912
519 7.197709
519.5 7.199166
520 7.206099
520.5 7.211781
521 7.214686
521.5 7.234463
522 7.255653
522.5 7.237377
523 7.275111
523.5 7.253896
524 7.283638
524.5 7.285307
525 7.294784
525.5 7.306273
526 7.301491
526.5 7.301318
527 7.308657
527.5 7.323655
528 7.324927
528.5 7.339448
529 7.33844
529.5 7.344809
530 7.358555
530.5 7.355004
531 7.376728
531.5 7.3474
532 7.385827
532.5 7.386085
533 7.399639
533.5 7.406987
534 7.409561
534.5 7.408462
535 7.409592
535.5 7.417522
536 7.429311
536.5 7.438595
537 7.424385
537.5 7.441467
538 7.421566
538.5 7.461666
539 7.447271
539.5 7.454544
540 7.462389
540.5 7.473025
541 7.485315
541.5 7.48902
542 7.488317
542.5 7.458486
543 7.514434
543.5 7.478948
544 7.5038
544.5 7.50161
545 7.524843
545.5 7.521668
546 7.524646
546.5 7.530391
547 7.519058
547.5 7.51607
548 7.534546
548.5 7.530887
549 7.541246
549.5 7.548234
550 7.562082
550.5 7.552089
551 7.551987
551.5 7.57938
552 7.583783
552.5 7.590035
553 7.583739
553.5 7.55439
554 7.591762
554.5 7.585748
555 7.58005
555.5 7.597459
556 7.585084
556.5 7.600357
557 7.622961
557.5 7.619923
558 7.603901
558.5 7.627989
559 7.619441
559.5 7.617793
560 7.611757
560.5 7.619239
561 7.635559
561.5 7.634293
562 7.649299
562.5 7.619714
563 7.630986
563.5 7.623026
564 7.620414
564.5 7.648838
565 7.634929
565.5 7.647903
566 7.644805
566.5 7.642226
567 7.643585
567.5 7.65893
568 7.653322
568.5 7.656504
569 7.659043
569.5 7.663331
570 7.675888
570.5 7.669506
571 7.674678
571.5 7.680728
572 7.686226
572.5 7.671122
573 7.69464
573.5 7.682785
574 7.687066
574.5 7.685865
575 7.691643
575.5 7.702505
576 7.697903
576.5 7.697984
577 7.716317
577.5 7.718758
578 7.728446
578.5 7.711963
579 7.741394
579.5 7.71769
580 7.728542
580.5 7.72473
581 7.740572
581.5 7.726901
582 7.737194
582.5 7.737568
583 7.746601
583.5 7.75611
584 7.75243
584.5 7.758427
585 7.746948
585.5 7.756785
586 7.762207
586.5 7.762738
587 7.761166
587.5 7.774045
588 7.749739
588.5 7.772858
589 7.770386
589.5 7.776545
590 7.769039
590.5 7.779282
591 7.786815
591.5 7.777927
592 7.795586
592.5 7.798896
593 7.795922
593.5 7.812267
594 7.808804
594.5 7.814591
595 7.808645
595.5 7.817704
596 7.806095
596.5 7.821537
597 7.819361
597.5 7.819101
598 7.821883
598.5 7.82367
599 7.848452
599.5 7.849412
600 7.825261
600.5 7.847229
601 7.863098
601.5 7.832747
602 7.855491
602.5 7.841157
603 7.866551
603.5 7.863186
604 7.878052
604.5 7.862581
605 7.870406
605.5 7.881722
606 7.890199
606.5 7.88324
607 7.872015
607.5 7.894501
608 7.890064
608.5 7.905491
609 7.897871
609.5 7.913736
610 7.90974
610.5 7.923793
611 7.914175
611.5 7.904511
612 7.92342
612.5 7.910057
613 7.938655
613.5 7.932429
614 7.9267
614.5 7.962957
615 7.949091
615.5 7.939917
616 7.93605
616.5 7.957192
617 7.95598
617.5 7.966498
618 7.950512
618.5 7.979261
619 7.960301
619.5 7.98004
620 7.987316
620.5 7.984187
621 7.984145
621.5 7.993709
622 8.003204
622.5 7.999429
623 8.017944
623.5 8.011665
624 8.020087
624.5 8.031935
625 8.014787
625.5 8.024469
626 8.037829
626.5 8.048116
627 8.025525
627.5 8.043693
628 8.069849
628.5 8.065788
629 8.06682
629.5 8.054458
630 8.056538
630.5 8.072793
631 8.076137
631.5 8.061474
632 8.080453
632.5 8.08048
633 8.097126
633.5 8.106616
634 8.120701
634.5 8.113103
635 8.112461
635.5 8.122182
636 8.145578
636.5 8.121805
637 8.129159
637.5 8.143643
638 8.141067
638.5 8.155566
639 8.158439
639.5 8.153795
640 8.167262
640.5 8.169195
641 8.181845
641.5 8.167242
642 8.193646
642.5 8.193491
643 8.203326
643.5 8.193853
644 8.198496
644.5 8.211832
645 8.226763
645.5 8.194635
646 8.224842
646.5 8.233482
647 8.235541
647.5 8.238854
648 8.255818
648.5 8.238573
649 8.254255
649.5 8.262572
650 8.254079
650.5 8.268802
651 8.265856
651.5 8.267786
652 8.299047
652.5 8.271238
653 8.303628
653.5 8.30541
654 8.32091
654.5 8.318996
655 8.308177
655.5 8.327184
656 8.328966
656.5 8.34073
657 8.342916
657.5 8.351359
658 8.338911
658.5 8.365245
659 8.367906
659.5 8.365713
660 8.368838
660.5 8.368031
661 8.381996
661.5 8.36815
662 8.393807
662.5 8.363774
663 8.413955
663.5 8.370011
664 8.371817
664.5 8.401635
665 8.4193
665.5 8.423686
666 8.438975
666.5 8.432202
667 8.42578
667.5 8.443616
668 8.444434
668.5 8.436183
669 8.46062
669.5 8.443665
670 8.466416
670.5 8.455597
671 8.48433
671.5 8.463156
672 8.469266
672.5 8.487764
673 8.505756
673.5 8.483268
674 8.512156
674.5 8.490626
675 8.515168
675.5 8.492226
676 8.4976
676.5 8.507583
677 8.529965
677.5 8.536883
678 8.527695
678.5 8.527096
679 8.528459
679.5 8.557301
680 8.547895
680.5 8.56713
681 8.564658
681.5 8.575655
682 8.558672
682.5 8.556911
683 8.579168
683.5 8.57802
684 8.584977
684.5 8.587482
685 8.599654
685.5 8.583558
686 8.610816
686.5 8.603181
687 8.608777
687.5 8.606102
688 8.624568
688.5 8.617844
689 8.618361
689.5 8.607192
690 8.616958
690.5 8.646502
691 8.641894
691.5 8.653376
692 8.673232
692.5 8.669738
693 8.652115
693.5 8.668903
694 8.657307
694.5 8.668925
695 8.700042
695.5 8.697607
696 8.691148
696.5 8.712933
697 8.711092
697.5 8.668908
698 8.710644
698.5 8.693782
699 8.725563
699.5 8.703029
700 8.7243
700.5 8.710822
701 8.741081
701.5 8.734114
702 8.728947
702.5 8.751316
703 8.753145
703.5 8.75936
704 8.733366
704.5 8.763117
705 8.770829
705.5 8.777521
706 8.768968
706.5 8.777691
707 8.76589
707.5 8.755612
708 8.803337
708.5 8.769675
709 8.819508
709.5 8.805744
710 8.826392
710.5 8.800472
711 8.823883
711.5 8.829249
712 8.82023
712.5 8.809699
713 8.831222
713.5 8.849268
714 8.837982
714.5 8.848589
715 8.838698
715.5 8.839193
716 8.849085
716.5 8.845998
717 8.854769
717.5 8.883546
718 8.894481
718.5 8.853551
719 8.891899
719.5 8.868604
720 8.90578
720.5 8.899043
721 8.892108
721.5 8.913571
722 8.91933
722.5 8.894397
723 8.947188
723.5 8.916132
724 8.937646
724.5 8.9437
725 8.919921
725.5 8.926442
726 8.936662
726.5 8.956787
727 8.93601
727.5 8.946764
728 8.974616
728.5 8.942444
729 8.969518
729.5 8.947625
730 8.987403
730.5 8.977672
731 9.011991
731.5 8.997756
732 9.011651
732.5 9.004222
733 9.010144
733.5 9.00111
734 9.035604
734.5 8.997295
735 9.021426
735.5 9.011175
736 9.014534
736.5 9.042571
737 9.022468
737.5 9.04418
738 9.074731
738.5 9.068573
739 9.062967
739.5 9.040359
740 9.082696
740.5 9.05427
741 9.090376
741.5 9.095539
742 9.088767
742.5 9.066016
743 9.091218
743.5 9.066207
744 9.100901
744.5 9.12188
745 9.104078
745.5 9.147778
746 9.11271
746.5 9.116609
747 9.120488
747.5 9.12891
748 9.142682
748.5 9.133741
749 9.154773
749.5 9.139638
750 9.191158
750.5 9.172218
751 9.180056
751.5 9.132168
752 9.177271
752.5 9.183557
753 9.191038
753.5 9.21721
754 9.174169
754.5 9.20314
755 9.188092
755.5 9.206208
756 9.189183
756.5 9.187943
757 9.234609
757.5 9.184977
758 9.232065
758.5 9.219037
759 9.286897
759.5 9.251279
760 9.250926
760.5 9.235915
761 9.26628
761.5 9.276175
762 9.266677
762.5 9.278621
763 9.298807
763.5 9.282028
764 9.260964
764.5 9.296428
765 9.270403
765.5 9.290402
766 9.280451
766.5 9.274702
767 9.3008
767.5 9.302737
768 9.302279
768.5 9.338876
769 9.371392
769.5 9.348199
770 9.322203
770.5 9.361558
771 9.381527
771.5 9.362176
772 9.386742
772.5 9.364471
773 9.352444
773.5 9.355051
774 9.367524
774.5 9.372383
775 9.378634
775.5 9.382574
776 9.344287
776.5 9.393855
777 9.418046
777.5 9.400434
778 9.430388
778.5 9.430293
779 9.412784
779.5 9.417682
780 9.414131
780.5 9.45822
781 9.430505
781.5 9.436611
782 9.451212
782.5 9.411442
783 9.449358
783.5 9.429294
784 9.457163
784.5 9.478345
785 9.437393
785.5 9.52007
786 9.489624
786.5 9.497064
787 9.44633
787.5 9.481692
788 9.51273
788.5 9.497042
789 9.475
789.5 9.55394
790 9.467798
790.5 9.491581
791 9.500576
791.5 9.512221
792 9.528074
792.5 9.519114
793 9.56794
793.5 9.506245
794 9.556594
794.5 9.571891
795 9.560482
795.5 9.581275
796 9.585557
796.5 9.610607
797 9.561791
797.5 9.610149
798 9.569108
798.5 9.580693
799 9.619521
799.5 9.616725
800 9.610583
800.5 9.607018
801 9.616966
801.5 9.637092
802 9.642482
802.5 9.598724
803 9.615205
803.5 9.644227
804 9.661715
804.5 9.6441
805 9.666038
805.5 9.65908
806 9.667122
806.5 9.667161
807 9.648801
807.5 9.699233
808 9.648079
808.5 9.676088
809 9.6899
809.5 9.694467
810 9.715091
810.5 9.665426
811 9.648818
811.5 9.668218
812 9.699886
812.5 9.704456
813 9.679347
813.5 9.759919
814 9.686901
814.5 9.69419
815 9.753595
815.5 9.72462
816 9.709179
816.5 9.676547
817 9.747509
817.5 9.719518
818 9.730488
818.5 9.744714
819 9.802477
819.5 9.734111
820 9.765217
820.5 9.757192
821 9.72643
821.5 9.75225
822 9.773878
822.5 9.735119
823 9.781612
823.5 9.766402
824 9.750846
824.5 9.766544
825 9.728423
825.5 9.758805
826 9.762326
826.5 9.77166
827 9.794008
827.5 9.768963
828 9.754402
828.5 9.797644
829 9.803191
829.5 9.741069
830 9.75015
830.5 9.8091
831 9.809379
831.5 9.768114
832 9.790478
832.5 9.788506
833 9.75835
833.5 9.759484
834 9.780555
834.5 9.776202
835 9.733601
835.5 9.778398
836 9.789728
836.5 9.730175
837 9.756159
837.5 9.780148
838 9.779457
838.5 9.806497
839 9.77243
839.5 9.792669
840 9.744926
840.5 9.776883
841 9.770419
841.5 9.776828
842 9.712663
842.5 9.831035
843 9.77369
843.5 9.765914
844 9.660105
844.5 9.757932
845 9.783949
845.5 9.752287
846 9.732278
846.5 9.769299
847 9.801684
847.5 9.79875
848 9.708421
848.5 9.761529
849 9.743024
849.5 9.782017
850 9.772044
850.5 9.801509
851 9.785126
851.5 9.827752
852 9.831448
852.5 9.844228
853 9.787198
853.5 9.839752
854 9.838334
854.5 9.77129
855 9.778682
855.5 9.794626
856 9.860388
856.5 9.822391
857 9.900188
857.5 9.863727
858 9.91926
858.5 9.849495
859 9.923844
859.5 9.990212
860 9.896394
860.5 9.8126
861 7.696573
861.5 7.560626
862 7.588472
862.5 7.483803
863 7.627438
863.5 7.592043
864 7.65458
864.5 7.568887
865 7.602074
865.5 7.692349
866 7.522137
866.5 7.823826
867 7.563949
867.5 7.708324
868 7.594255
868.5 7.660449
869 7.481535
869.5 7.560524
870 7.662719
870.5 7.555299
871 7.651867
871.5 7.476643
872 7.663528
872.5 7.56764
873 7.811414
873.5 7.596816
874 7.676893
874.5 7.642441
875 7.777145
875.5 7.69569
876 7.652728
876.5 7.828938
877 7.727628
877.5 7.807387
878 7.618824
878.5 7.782345
879 7.67335
879.5 7.733618
880 7.744908
880.5 7.591856
881 7.834189
881.5 7.682803
882 7.816196
882.5 7.572094
883 7.755337
883.5 7.569192
884 7.762107
884.5 7.685228
885 7.850992
885.5 7.787701
886 7.829073
886.5 7.791819
887 7.743756
887.5 7.797472
888 7.690751
888.5 7.930608
889 7.766056
889.5 7.902011
890 7.850955
890.5 7.826211
891 7.87689
891.5 7.613116
892 7.931066
892.5 7.764004
893 7.927589
893.5 7.599755
894 7.868253
894.5 7.731812
895 7.952576
895.5 7.789663
896 7.864712
896.5 7.916577
897 7.703417
897.5 7.888071
898 7.849952
898.5 8.038168
899 7.807327
899.5 7.933624
900 7.827298
900.5 7.875704
901 7.964092
901.5 7.856808
902 7.920267
902.5 7.8132
903 7.912485
903.5 7.663424
904 8.04809
904.5 7.885576
905 7.931066
905.5 7.828556
906 7.782881
906.5 8.023856
907 7.824021
907.5 7.960249
908 7.80791
908.5 8.072691
909 7.976979
909.5 7.99899
910 7.911088
910.5 8.067398
911 8.076452
911.5 7.911663
912 8.14316
912.5 7.848496
913 8.088711
913.5 7.897601
914 8.053254
914.5 7.87512
915 7.983419
915.5 7.98842
916 8.005136
916.5 7.985617
917 7.85168
917.5 8.14232
918 7.934588
918.5 8.170497
919 7.897741
919.5 7.929993
920 7.871664
920.5 8.022557
921 8.029722
921.5 7.982488
922 8.183345
922.5 8.014114
923 8.057881
923.5 7.942729
924 8.179773
924.5 8.061007
925 8.182169
925.5 7.982563
926 8.014618
926.5 8.117411
927 8.020248
927.5 8.147237
928 7.858304
928.5 8.119424
929 7.922776
929.5 8.187441
930 8.055694
930.5 8.080719
931 8.089303
931.5 8.202339
932 8.154099
932.5 8.059508
933 8.242968
933.5 8.075401
934 8.205769
934.5 8.07072
935 8.140483
935.5 8.119661
936 8.228492
936.5 8.1366
937 8.041964
937.5 8.261491
938 8.039289
938.5 8.306947
939 7.970123
939.5 8.255333
940 7.990777
940.5 8.300543
941 8.14008
941.5 8.201346
942 8.184728
942.5 8.131973
943 8.297886
943.5 8.156424
944 8.258655
944.5 8.115179
945 8.298905
945.5 8.108239
946 8.191761
946.5 8.237635
947 8.160073
947.5 8.223238
948 8.202261
948.5 8.289216
949 8.057071
949.5 8.346488
950 8.182234
950.5 8.301979
951 8.149664
951.5 8.185134
952 8.209493
952.5 8.192421
953 8.362806
953.5 8.117048
954 8.344781
954.5 8.217442
955 8.24691
955.5 8.221682
956 8.395772
956.5 8.262712
957 8.286332
957.5 8.343091
958 8.236551
958.5 8.495241
959 8.253997
959.5 8.325933
960 8.134525
960.5 8.345495
961 8.26114
961.5 8.329501
962 8.272938
962.5 8.138102
963 8.400001
963.5 8.247557
964 8.35403
964.5 8.09942
965 8.374614
965.5 8.283213
966 8.29331
966.5 8.311164
967 8.348139
967.5 8.339988
968 8.290295
968.5 8.473691
969 8.25015
969.5 8.406538
970 8.222402
970.5 8.429722
971 8.335197
971.5 8.35599
972 8.45195
972.5 8.465753
973 8.430216
973.5 8.200003
974 8.414768
974.5 8.21624
975 8.455022
975.5 8.255855
976 8.461049
976.5 8.382095
977 8.418251
977.5 8.34085
978 8.33704
978.5 8.466806
979 8.373686
979.5 8.488248
980 8.398407
980.5 8.474953
981 8.383752
981.5 8.504862
982 8.395818
982.5 8.344297
983 8.451787
983.5 8.431801
984 8.453496
984.5 8.241209
985 8.573569
985.5 8.230331
986 8.534
986.5 8.444238
987 8.526693
987.5 8.437239
988 8.52053
988.5 8.412364
989 8.427706
989.5 8.577009
990 8.305527
990.5 8.660738
991 8.495335
991.5 8.465906
992 8.496071
992.5 8.525104
993 8.465283
993.5 8.417854
994 8.632266
994.5 8.422656
995 8.631826
995.5 8.186311
996 8.518433
996.5 8.407183
997 8.564135
997.5 8.549932
998 8.48529
998.5 8.566383
999 8.363467
999.5 8.627058
1000 8.486351
1000.5 8.630007
1001 8.481999
1001.5 8.722217
1002 8.615176
1002.5 8.509544
1003 8.575615
1003.5 8.512583
1004 8.669142
1004.5 8.427536
1005 8.640549
1005.5 8.46101
1006 8.689483
1006.5 8.558809
1007 8.604748
1007.5 8.4864
1008 8.436811
1008.5 8.651193
1009 8.576655
1009.5 8.578472
1010 8.419225
1010.5 8.822785
1011 8.545676
1011.5 8.64652
1012 8.460938
1012.5 8.706322
1013 8.643148
1013.5 8.583059
1014 8.662001
1014.5 8.555434
1015 8.806495
1015.5 8.583737
1016 8.756258
1016.5 8.593669
1017 8.625357
1017.5 8.515088
1018 8.599295
1018.5 8.586889
1019 8.485758
1019.5 8.656194
1020 8.608794
1020.5 8.733428
1021 8.464558
1021.5 8.816302
1022 8.61977
1022.5 8.885004
1023 8.677788
1023.5 8.648644
1024 8.756887
1024.5 8.775454
1025 8.776569
1025.5 8.63762
1026 8.853631
1026.5 8.659
1027 8.755108
1027.5 8.635931
1028 8.660465
1028.5 8.844539
1029 8.791668
1029.5 8.828899
1030 8.593799
1030.5 8.853742
1031 8.519901
1031.5 8.877743
1032 8.654851
1032.5 8.873209
1033 8.579411
1033.5 8.789317
1034 8.829368
1034.5 8.772463
1035 8.861441
1035.5 8.633329
1036 8.847649
1036.5 8.750776
1037 8.825458
1037.5 8.800665
1038 8.961514
1038.5 8.906545
1039 8.791126
1039.5 8.803513
1040 8.71973
1040.5 8.889879
1041 8.597878
1041.5 8.90219
1042 8.667565
1042.5 8.941703
1043 8.812097
1043.5 8.88712
1044 8.828615
1044.5 8.697712
1045 8.887894
1045.5 8.733422
1046 8.849758
1046.5 8.808757
1047 9.041711
1047.5 8.849457
1048 8.949801
1048.5 8.826138
1049 8.901074
1049.5 8.872521
1050 8.782163
1050.5 9.084486
1051 8.803803
1051.5 9.060487
1052 8.891961
1052.5 8.932072
1053 8.732131
1053.5 8.817649
1054 8.917016
1054.5 8.921399
1055 8.974586
1055.5 8.667039
1056 8.958854
1056.5 8.888906
1057 8.995775
1057.5 8.86308
1058 9.050901
1058.5 8.933844
1059 8.937862
1059.5 9.049933
1060 8.874138
1060.5 9.083629
1061 8.975051
1061.5 9.107455
1062 8.942537
1062.5 9.034938
1063 8.90005
1063.5 8.997576
1064 8.96374
1064.5 8.934072
1065 9.128091
1065.5 9.006242
1066 9.050602
1066.5 8.898683
1067 9.101094
1067.5 8.912186
1068 9.109932
1068.5 8.925007
1069 8.941025
1069.5 9.010363
1070 9.164372
1070.5 9.125086
1071 8.955816
1071.5 9.170139
1072 8.923377
1072.5 9.169523
1073 9.005956
1073.5 9.134749
1074 9.073986
1074.5 9.122519
1075 9.055499
1075.5 8.914202
1076 9.169048
1076.5 9.041063
1077 9.19752
1077.5 8.946393
1078 9.198168
1078.5 8.952143
1079 9.163508
1079.5 9.115663
1080 9.101889
1080.5 9.140607
1081 8.933605
1081.5 9.193272
1082 9.106202
1082.5 9.284183
1083 9.126002
1083.5 9.240997
1084 9.192339
1084.5 9.135295
1085 9.207346
1085.5 9.090823
1086 9.323108
1086.5 9.019435
1087 9.36372
1087.5 9.018898
1088 9.257583
1088.5 9.118697
1089 9.17761
1089.5 9.143961
1090 9.142761
1090.5 9.315956
1091 9.190747
1091.5 9.331604
1092 9.114173
1092.5 9.304496
1093 9.192701
1093.5 9.282485
1094 9.211855
1094.5 9.333993
1095 9.33712
1095.5 9.273025
1096 9.360651
1096.5 9.196091
1097 9.438004
1097.5 9.190436
1098 9.346007
1098.5 9.170215
1099 9.257012
1099.5 9.237277
1100 9.291574
1100.5 9.325067
1101 9.123029
1101.5 9.429449
1102 9.38021
1102.5 9.451714
1103 9.229699
1103.5 9.462779
1104 9.31709
1104.5 9.389806
1105 9.369697
1105.5 9.202231
1106 9.398291
1106.5 9.278116
1107 9.400039
1107.5 9.228829
1108 9.331307
1108.5 9.338806
1109 9.421046
1109.5 9.347825
1110 9.374144
1110.5 9.440152
1111 9.350412
1111.5 9.528675
1112 9.203758
1112.5 9.509728
1113 9.336808
1113.5 9.50017
1114 9.281412
1114.5 9.460487
1115 9.372952
1115.5 9.521782
1116 9.528545
1116.5 9.399772
1117 9.549087
1117.5 9.398659
1118 9.457874
1118.5 9.430408
1119 9.473314
1119.5 9.469373
1120 9.560411
1120.5 9.421204
1121 9.383464
1121.5 9.636971
1122 9.500986
1122.5 9.684373
1123 9.379004
1123.5 9.680136
1124 9.429216
1124.5 9.608479
1125 9.563679
1125.5 9.595451
1126 9.589375
1126.5 9.528941
1127 9.655713
1127.5 9.529807
1128 9.724315
1128.5 9.499697
1129 9.674093
1129.5 9.663845
1130 9.607352
1130.5 9.581008
1131 9.429225
1131.5 9.555552
1132 9.377198
1132.5 9.463065
1133 9.233736
1133.5 9.568993
1134 9.399629
1134.5 9.697197
1135 9.594364
1135.5 9.735605
1136 9.738451
1136.5 9.622689
1137 9.62882
1137.5 9.464604
1138 9.777645
1138.5 9.687795
1139 9.745234
1139.5 9.598736
1140 9.691056
1140.5 9.734357
1141 9.648456
1141.5 9.712715
1142 9.558074
1142.5 9.744024
1143 9.50621
1143.5 9.751403
1144 9.579745
1144.5 9.768179
1145 9.631135
1145.5 9.595239
1146 9.655066
1146.5 9.554235
1147 9.659709
1147.5 9.748849
1148 9.789792
1148.5 9.649713
1149 9.865648
1149.5 9.72564
1150 9.766436
1150.5 9.72448
1151 9.668969
1151.5 9.811695
1152 9.741932
1152.5 9.919341
1153 9.715516
1153.5 9.970926
1154 9.781031
1154.5 9.897348
1155 9.767268
1155.5 9.853216
1156 9.833182
1156.5 9.802881
1157 9.81066
1157.5 9.58473
1158 9.892599
1158.5 9.714491
1159 9.905358
1159.5 9.744372
1160 9.955855
1160.5 9.88857
1161 9.91386
1161.5 9.871012
1162 9.868264
1162.5 9.952778
1163 9.888335
1163.5 9.969583
1164 9.861508
1164.5 10.009189
1165 9.937896
1165.5 9.974486
1166 9.856248
1166.5 9.826127
1167 9.988722
1167.5 9.773834
1168 10.004461
1168.5 9.740475
1169 9.993954
1169.5 9.784941
1170 10.03911
1170.5 9.930342
1171 9.995615
1171.5 10.043218
1172 9.952423
1172.5 10.00873
1173 9.928667
1173.5 10.163141
1174 9.945464
1174.5 10.119559
1175 9.928159
1175.5 9.991915
1176 10.053907
1176.5 10.0931
1177 10.060003
1177.5 9.841322
1178 10.104658
1178.5 9.880563
1179 10.208689
1179.5 9.914699
1180 9.991674
1180.5 9.968445
1181 10.108181
1181.5 10.120985
1182 9.994362
1182.5 10.117626
1183 9.961046
1183.5 10.192849
1184 9.998357
1184.5 10.182223
1185 10.076077
1185.5 10.135847
1186 10.107037
1186.5 10.018848
1187 10.16678
1187.5 9.975868
1188 10.11702
1188.5 9.912724
1189 10.068567
1189.5 9.623371
1190 9.931149
1190.5 10.234896
1191 10.047444
1191.5 10.294729
1192 9.861018
1192.5 10.217251
1193 9.990381
1193.5 10.216615
1194 10.158492
1194.5 10.22648
1195 10.235363
1195.5 10.027385
1196 10.308441
1196.5 10.20626
1197 10.339175
1197.5 10.024747
1198 10.223172
1198.5 10.26343
1199 10.234312
1199.5 10.209724
1200 10.212123
1200.5 10.332822
1201 10.118181
1201.5 10.334451
1202 10.088736
1202.5 10.329731
1203 10.230725
1203.5 10.276292
1204 10.191189
1204.5 10.288116
1205 10.354127
1205.5 10.246854
1206 10.312722
1206.5 10.128869
1207 10.435645
1207.5 10.231791
1208 10.363409
1208.5 10.320474
1209 10.335489
1209.5 10.445148
1210 10.29523
1210.5 10.421237
1211 10.272332
1211.5 10.423721
1212 10.278802
1212.5 10.412107
1213 10.244428
1213.5 10.36719
1214 10.327172
1214.5 10.364453
1215 10.368463
1215.5 10.260391
1216 10.507945
1216.5 10.385205
1217 10.44616
1217.5 10.271265
1218 10.476017
1218.5 10.340717
1219 10.519709
1219.5 10.500658
1220 10.448022
1220.5 10.603256
1221 10.43945
1221.5 10.555775
1222 10.430998
1222.5 10.669659
1223 10.391811
1223.5 10.561442
1224 10.485553
1224.5 10.410583
1225 10.638278
1225.5 10.540393
1226 10.522675
1226.5 10.334214
1227 10.681897
1227.5 10.400262
1228 10.589893
1228.5 10.403214
1229 10.643661
1229.5 10.469216
1230 10.545849
1230.5 10.58805
1231 10.545942
1231.5 10.474304
1232 10.436425
1232.5 10.645931
1233 10.5299
1233.5 10.646918
1234 10.641919
1234.5 10.656076
1235 10.649837
1235.5 10.559613
1236 10.665716
1236.5 10.491997
1237 10.723226
1237.5 10.501917
1238 10.722502
1238.5 10.567877
1239 10.707864
1239.5 10.698233
1240 10.56617
1240.5 10.724901
1241 10.560343
1241.5 10.648439
1242 10.665031
1242.5 10.794602
1243 10.50036
1243.5 10.748436
1244 10.65748
1244.5 10.668454
1245 10.767001
1245.5 10.722831
1246 10.866667
1246.5 10.636891
1247 10.832343
1247.5 10.588241
1248 10.813355
1248.5 10.65898
1249 10.791785
1249.5 10.745445
1250 10.710864
1250.5 10.870706
1251 10.778779
1251.5 10.845773
1252 10.615946
1252.5 10.898235
1253 10.765623
1253.5 10.94518
1254 10.768975
1254.5 10.961775
1255 10.900893
1255.5 10.81926
1256 10.936116
1256.5 10.757216
1257 10.963531
1257.5 10.826676
1258 10.909361
1258.5 10.82334
1259 10.947123
1259.5 10.841618
1260 10.852845
1260.5 10.970662
1261 10.690999
1261.5 10.928015
1262 10.898377
1262.5 11.011741
1263 10.765451
1263.5 11.000122
1264 10.888007
1264.5 10.991349
1265 11.006086
1265.5 10.970947
1266 11.04667
1266.5 10.927679
1267 11.054366
1267.5 10.910749
1268 11.074403
1268.5 11.029338
1269 11.049487
1269.5 10.90422
1270 10.928834
1270.5 11.09634
1271 10.992069
1271.5 11.040603
1272 10.74809
1272.5 11.125896
1273 10.94098
1273.5 11.104511
1274 10.945372
1274.5 11.099447
1275 11.015433
1275.5 11.101393
1276 11.055601
1276.5 10.998292
1277 11.148396
1277.5 10.996574
1278 11.205591
1278.5 11.048833
1279 11.114658
1279.5 11.073995
1280 11.134142
1280.5 11.112133
1281 11.043705
1281.5 11.179291
1282 11.036949
1282.5 11.208738
1283 10.981356
1283.5 11.214405
1284 10.962298
1284.5 11.195967
1285 11.125739
1285.5 11.140868
1286 11.151596
1286.5 11.120974
1287 11.132777
1287.5 11.106972
1288 11.297376
1288.5 11.055116
1289 11.20578
1289.5 11.215646
1290 11.16747
1290.5 11.29967
1291 11.275667
1291.5 11.274001
1292 11.092529
1292.5 11.339699
1293 11.012599
1293.5 11.377022
1294 11.124433
1294.5 11.310712
1295 11.201979
1295.5 11.221802
1296 11.330052
1296.5 11.198096
1297 11.309043
1297.5 11.111746
1298 11.451133
1298.5 11.296482
1299 11.459563
1299.5 11.236437
1300 11.377341
1300.5 11.396243
1301 11.39058
1301.5 11.439189
1302 11.2146
1302.5 11.470317
1303 11.244438
1303.5 11.408285
1304 11.253504
1304.5 11.378521
1305 11.297749
1305.5 11.388073
1306 11.360312
1306.5 11.281031
1307 11.486927
1307.5 11.364918
1308 11.459218
1308.5 11.257691
1309 11.512511
1309.5 11.335412
1310 11.444683
1310.5 11.408763
1311 11.359654
1311.5 11.535104
1312 11.399012
1312.5 11.622413
1313 11.448022
1313.5 11.556239
1314 11.4339
1314.5 11.534663
1315 11.439034
1315.5 11.387704
1316 11.529501
1316.5 11.55557
1317 11.48676
1317.5 11.348151
1318 11.568423
1318.5 11.371555
1319 11.614806
1319.5 11.432753
1320 11.635236
1320.5 11.429057
1321 11.51091
1321.5 11.530618
1322 11.513184
1322.5 11.61539
1323 11.487992
1323.5 11.611585
1324 11.501611
1324.5 11.652686
1325 11.526006
1325.5 11.627322
1326 11.491218
1326.5 11.511999
1327 11.72571
1327.5 11.525717
1328 11.624577
1328.5 11.419331
1329 11.761281
1329.5 11.413594
1330 11.695794
1330.5 11.584192
1331 11.667433
1331.5 11.675988
1332 11.716478
1332.5 11.800463
1333 11.730262
1333.5 11.955897
1334 11.771019
1334.5 11.916745
1335 11.684734
1335.5 11.771955
1336 11.721928
1336.5 11.681379
1337 11.736184
1337.5 11.632446
1338 11.84419
1338.5 11.591811
1339 11.810277
1339.5 11.592896
1340 11.800496
1340.5 11.629524
1341 11.774816
1341.5 11.755708
1342 11.671096
1342.5 11.78647
1343 11.598735
1343.5 11.890703
1344 11.835986
1344.5 11.937681
1345 11.882402
1345.5 11.915829
1346 11.921528
1346.5 11.702759
1347 11.76029
1347.5 11.955497
1348 12.153427
1348.5 11.867525
1349 11.997727
1349.5 11.819767
1350 11.934411
1350.5 11.885199
1351 11.893558
1351.5 11.934877
1352 11.761736
1352.5 11.993559
1353 11.875767
1353.5 11.83539
1354 11.498131
1354.5 12.009118
1355 12.045274
1355.5 12.219149
1356 11.827438
1356.5 11.944515
1357 11.998712
1357.5 12.054455
1358 12.148666
1358.5 11.863113
1359 12.035957
1359.5 11.982073
1360 11.947706
1360.5 11.672625
1361 11.740995
1361.5 12.046255
1362 12.197025
1362.5 12.425973
1363 11.83838
1363.5 11.917549
1364 11.755922
1364.5 12.316757
1365 12.190519
1365.5 12.480526
1366 11.924402
1366.5 11.98853
1367 11.788082
1367.5 12.16628
1368 12.345429
1368.5 12.361839
1369 12.052901
1369.5 11.85256
1370 11.962234
1370.5 11.973444
1371 12.327604
1371.5 12.247682
1372 12.355176
1372.5 12.364226
1373 12.291014
1373.5 12.167645
1374 11.87772
1374.5 12.216319
1375 11.947948
1375.5 12.206873
1376 12.053599
1376.5 12.430288
1377 12.230188
1377.5 12.189972
1378 12.065271
1378.5 12.265622
1379 12.370875
1379.5 11.910734
1380 12.064786
1380.5 12.47961
1381 12.362932
1381.5 11.928714
1382 11.955693
1382.5 12.445944
1383 12.497392
1383.5 12.385453
1384 12.04579
1384.5 12.361892
1385 12.233872
1385.5 12.562191
1386 12.25393
1386.5 12.248581
1387 11.956425
1387.5 12.192663
1388 12.470715
1388.5 12.447713
1389 12.557496
1389.5 12.472218
1390 12.600519
1390.5 12.365416
1391 12.317829
1391.5 12.197335
1392 12.42796
1392.5 12.713562
1393 12.592217
1393.5 12.323652
1394 12.035582
1394.5 12.295888
1395 12.243303
1395.5 12.591371
1396 12.481485
1396.5 12.746128
1397 12.651265
1397.5 12.553304
1398 12.481815
1398.5 12.303361
1399 12.266263
1399.5 12.07409
1400 12.421902
1400.5 12.568584
1401 12.778367
1401.5 12.695819
1402 12.763675
1402.5 12.536459
1403 12.469728
1403.5 12.29445
1404 12.2169
1404.5 12.656733
1405 12.811346
1405.5 12.740086
1406 12.248053
1406.5 12.512045
1407 12.775733
1407.5 12.681863
1408 12.297088
1408.5 12.193462
1409 12.667395
1409.5 12.803225
1410 12.80878
1410.5 12.417205
1411 12.75218
1411.5 12.521806
1412 12.774053
1412.5 12.545702
1413 12.515949
1413.5 12.499455
1414 12.687923
1414.5 12.907104
1415 12.859018
1415.5 12.774792
1416 12.567197
1416.5 12.684065
1417 12.558702
1417.5 12.546355
1418 12.564723
1418.5 12.768991
1419 12.914717
1419.5 12.82803
1420 12.949599
1420.5 12.558277
1421 12.768571
1421.5 12.47198
1422 12.627603
1422.5 12.606123
1423 12.96698
1423.5 12.927015
1424 12.866941
1424.5 12.828389
1425 12.661517
1425.5 12.888941
1426 12.69967
1426.5 12.841387
1427 12.727924
1427.5 12.842155
1428 12.872404
1428.5 12.811472
1429 12.903547
1429.5 12.699695
1430 12.858465
1430.5 12.631814
1431 12.929471
1431.5 12.673162
1432 13.072614
1432.5 12.846008
1433 12.850104
1433.5 12.803814
1434 12.858647
1434.5 12.947458
1435 12.762383
1435.5 12.939981
1436 12.695052
1436.5 12.978956
1437 12.992498
1437.5 13.041927
1438 12.980516
1438.5 12.951973
1439 13.032021
1439.5 12.969118
1440 13.11404
1440.5 12.866873
1441 13.141917
1441.5 13.050531
1442 13.17855
1442.5 13.006912
1443 13.11834
1443.5 13.1244
1444 13.051337
1444.5 12.897368
1445 12.902682
1445.5 13.340947
1446 13.260287
1446.5 13.120642
1447 12.897973
1447.5 13.0918
1448 12.939811
1448.5 13.054977
1449 13.007598
1449.5 13.106576
1450 13.25344
1450.5 13.247342
1451 13.290106
1451.5 13.074322
1452 13.22875
1452.5 13.064024
1453 13.108997
1453.5 13.00628
1454 13.073114
1454.5 13.251224
1455 13.302098
1455.5 13.361563
1456 13.074023
1456.5 13.332888
1457 13.096941
1457.5 13.317108
1458 13.075636
1458.5 13.32964
1459 13.164558
1459.5 13.293925
1460 13.360387
1460.5 13.149072
1461 13.285612
1461.5 13.090861
1462 13.330644
1462.5 13.163371
1463 13.343227
1463.5 13.175102
1464 13.265899
1464.5 13.289577
1465 13.193488
1465.5 13.32972
1466 13.222352
1466.5 13.368595
1467 13.110435
1467.5 13.367748
1468 13.096267
1468.5 13.431208
1469 13.292801
1469.5 13.347772
1470 13.437559
1470.5 13.421042
1471 13.473186
1471.5 13.396794
1472 13.57847
1472.5 13.455127
1473 13.664706
1473.5 13.525619
1474 13.542935
1474.5 13.578932
1475 13.42728
1475.5 13.590153
1476 13.401122
1476.5 13.536009
1477 13.306992
1477.5 13.596283
1478 13.394691
1478.5 13.553058
1479 13.42603
1479.5 13.509829
1480 13.487329
1480.5 13.576595
1481 13.530955
1481.5 13.346529
1482 13.553227
1482.5 13.526915
1483 13.558772
1483.5 13.431588
1484 13.64654
1484.5 13.543937
1485 13.58206
1485.5 13.605423
1486 13.548447
1486.5 13.792296
1487 13.619591
1487.5 13.712394
1488 13.537616
1488.5 13.774899
1489 13.687201
1489.5 13.797434
1490 13.744099
1490.5 13.755153
1491 13.795789
1491.5 13.698712
1492 13.776597
1492.5 13.494958
1493 13.808845
1493.5 13.645786
1494 13.765061
1494.5 13.600422
1495 13.750924
1495.5 13.71596
1496 13.776405
1496.5 13.86025
1497 13.624936
1497.5 13.837142
1498 13.692696
1498.5 13.83469
1499 13.718446
1499.5 13.771337
1500 13.780448
1500.5 13.832277
1501 13.882843
1501.5 13.719714
1502 13.871136
1502.5 13.680682
1503 13.958621
1503.5 13.678651
1504 14.064793
1504.5 13.929795
1505 14.11496
1505.5 14.003031
1506 14.008176
1506.5 13.8963
1507 13.839811
1507.5 14.1009
1508 13.832368
1508.5 14.041229
1509 13.880968
1509.5 14.109106
1510 14.012368
1510.5 13.971059
1511 13.925183
1511.5 13.984995
1512 14.026061
1512.5 13.950786
1513 14.233798
1513.5 13.912456
1514 14.14067
1514.5 13.995022
1515 14.139982
1515.5 13.944548
1516 14.018133
1516.5 14.085528
1517 13.959712
1517.5 14.040057
1518 13.899986
1518.5 14.22682
1519 14.072815
1519.5 14.118074
1520 13.992023
1520.5 14.184542
1521 14.135388
1521.5 14.153747
1522 14.13953
1522.5 13.995253
1523 14.238158
1523.5 14.099716
1524 14.280288
1524.5 14.20128
1525 14.318274
1525.5 14.269938
1526 14.377077
1526.5 14.366128
1527 14.272925
1527.5 14.30584
1528 14.237475
1528.5 14.262429
1529 14.068747
1529.5 14.330302
1530 14.157011
1530.5 14.337158
1531 14.193337
1531.5 14.235659
1532 14.292449
1532.5 14.323641
1533 14.410792
1533.5 14.247924
1534 14.478768
1534.5 14.30819
1535 14.498088
1535.5 14.424135
1536 14.476268
1536.5 14.402527
1537 14.393993
1537.5 14.381684
1538 14.254284
1538.5 14.443271
1539 14.24291
1539.5 14.436382
1540 14.148988
1540.5 14.446945
1541 14.360562
1541.5 14.499483
1542 14.418383
1542.5 14.501788
1543 14.499231
1543.5 14.527422
1544 14.587729
1544.5 14.492163
1545 14.536361
1545.5 14.352629
1546 14.500616
1546.5 14.47586
1547 14.486508
1547.5 14.587784
1548 14.523713
1548.5 14.590412
1549 14.404714
1549.5 14.639975
1550 14.418519
1550.5 14.676905
1551 14.405793
1551.5 14.62598
1552 14.581251
1552.5 14.478576
1553 14.681795
1553.5 14.700973
1554 14.775899
1554.5 14.516144
1555 14.786884
1555.5 14.685482
1556 14.928825
1556.5 14.741148
1557 14.709438
1557.5 14.608061
1558 14.608708
1558.5 14.69003
1559 14.551899
1559.5 14.813453
1560 14.66627
1560.5 14.81584
1561 14.577845
1561.5 14.784035
1562 14.631265
1562.5 14.715415
1563 14.690608
1563.5 14.64711
1564 14.892097
1564.5 14.708991
1565 14.907984
1565.5 14.674862
1566 14.89163
1566.5 14.766388
1567 14.994483
1567.5 14.861527
1568 15.013927
1568.5 15.022613
1569 14.998321
1569.5 15.052783
1570 14.805046
1570.5 14.961895
1571 14.824843
1571.5 14.941406
1572 14.83191
1572.5 14.874336
1573 14.876981
1573.5 14.954746
1574 14.915228
1574.5 14.767379
1575 15.031987
1575.5 14.839602
1576 15.061103
1576.5 14.838262
1577 15.097772
1577.5 14.961781
1578 15.109858
1578.5 15.07799
1579 15.140836
1579.5 15.150656
1580 15.081981
1580.5 15.281856
1581 15.01645
1581.5 15.114577
1582 15.018511
1582.5 15.083319
1583 15.065949
1583.5 14.989853
1584 15.175366
1584.5 15.079533
1585 15.183602
1585.5 14.952689
1586 15.174302
1586.5 14.90432
1587 15.279855
1587.5 15.064813
1588 15.194193
1588.5 15.132637
1589 15.202165
1589.5 15.241548
1590 15.227303
1590.5 15.338297
1591 15.158041
1591.5 15.478642
1592 15.358272
1592.5 15.370725
1593 15.114488
1593.5 15.283282
1594 15.258382
1594.5 15.22806
1595 15.347829
1595.5 15.178999
1596 15.38174
1596.5 15.174215
1597 15.357684
1597.5 15.118773
1598 15.278766
1598.5 15.322296
1599 15.339828
1599.5 15.284388
1600 15.187804
1600.5 15.483876
1601 15.427125
1601.5 15.566914
1602 15.336889
1602.5 15.621938
1603 15.463351
1603.5 15.555847
1604 15.405704
1604.5 15.392874
1605 15.450783
1605.5 15.383877
1606 15.539351
1606.5 15.431769
1607 15.475973
1607.5 15.41409
1608 15.550858
1608.5 15.377975
1609 15.50775
1609.5 15.533829
1610 15.555416
1610.5 15.573052
1611 15.338822
1611.5 15.648142
1612 15.461908
1612.5 15.69009
1613 15.504313
1613.5 15.753455
1614 15.605035
1614.5 15.788145
1615 15.534751
1615.5 15.645017
1616 15.724221
1616.5 15.603976
1617 15.710354
1617.5 15.550855
1618 15.734419
1618.5 15.584596
1619 15.711977
1619.5 15.648885
1620 15.602283
1620.5 15.770441
1621 15.656522
1621.5 15.738456
1622 15.534964
1622.5 15.83098
1623 15.520038
1623.5 15.903875
1624 15.783003
1624.5 15.879747
1625 15.759525
1625.5 15.695193
1626 15.724853
1626.5 15.69849
1627 15.863773
1627.5 15.676364
1628 15.918182
1628.5 15.768759
1629 15.800239
1629.5 15.849316
1630 15.911894
1630.5 15.93731
1631 15.846196
1631.5 15.926383
1632 15.781893
1632.5 16.004184
1633 15.782635
1633.5 15.993087
1634 15.854938
1634.5 16.043706
1635 16.008809
1635.5 16.021207
1636 15.953752
1636.5 15.705912
1637 16.040987
1637.5 15.954247
1638 16.027924
1638.5 15.865168
1639 16.06127
1639.5 15.91413
1640 15.927918
1640.5 16.04185
1641 15.975809
1641.5 16.097075
1642 15.966575
1642.5 16.212299
1643 15.929884
1643.5 16.113952
1644 16.010845
1644.5 16.23469
1645 16.021708
1645.5 16.161288
1646 16.266309
1646.5 16.143468
1647 16.161479
1647.5 15.955034
1648 16.206172
1648.5 16.091812
1649 16.197385
1649.5 16.043401
1650 16.154835
1650.5 16.11454
1651 16.203088
1651.5 16.255306
1652 16.213261
1652.5 16.368477
1653 16.194583
1653.5 16.302282
1654 16.261925
1654.5 16.418733
1655 16.1623
1655.5 16.278975
1656 16.233899
1656.5 16.129607
1657 16.40472
1657.5 16.22957
1658 16.315836
1658.5 16.068284
1659 16.368665
1659.5 16.216303
1660 16.44951
1660.5 16.35289
1661 16.353312
1661.5 16.367725
1662 16.381316
1662.5 16.39782
1663 16.370465
1663.5 16.440539
1664 16.306984
1664.5 16.578288
1665 16.406639
1665.5 16.516995
1666 16.405529
1666.5 16.378814
1667 16.426241
1667.5 16.226603
1668 16.404955
1668.5 16.227752
1669 16.415666
1669.5 16.175146
1670 16.373053
1670.5 16.440578
1671 16.564542
1671.5 16.412881
1672 16.696607
1672.5 16.459028
1673 16.684291
1673.5 16.361403
1674 16.592136
1674.5 16.487098
1675 16.544756
1675.5 16.611753
1676 16.443565
1676.5 16.727412
1677 16.639541
1677.5 16.784962
1678 16.538005
1678.5 16.677226
1679 16.6034
1679.5 16.673617
1680 16.617805
1680.5 16.630673
1681 16.70339
1681.5 16.598807
1682 16.815324
1682.5 16.699947
1683 16.893303
1683.5 16.75702
1684 16.718137
1684.5 16.64567
1685 16.638577
1685.5 16.804764
1686 16.697194
1686.5 16.801365
1687 16.577889
1687.5 16.944849
1688 16.718479
1688.5 16.899468
1689 16.684262
1689.5 16.801457
1690 16.704389
1690.5 16.845018
1691 16.752841
1691.5 16.696744
1692 16.909561
1692.5 16.84099
1693 16.894479
1693.5 16.828689
1694 16.996875
1694.5 16.912492
1695 16.989177
1695.5 16.900378
1696 16.977924
1696.5 16.944587
1697 16.878717
1697.5 16.950749
1698 16.653521
1698.5 16.971754
1699 16.763949
1699.5 17.010272
1700 16.794533
1700.5 16.979486
1701 16.904196
1701.5 17.030323
1702 17.025703
1702.5 16.986983
1703 17.128757
1703.5 16.983697
1704 17.226861
1704.5 17.160968
1705 17.192374
1705.5 16.992436
1706 17.06109
1706.5 17.173357
1707 16.918632
1707.5 17.202668
1708 16.939758
1708.5 17.157361
1709 16.931303
1709.5 17.171067
1710 16.956331
1710.5 17.253329
1711 17.110299
1711.5 17.206711
1712 17.194495
1712.5 17.014521
1713 17.257832
1713.5 17.130493
1714 17.357722
1714.5 17.188214
1715 17.479283
1715.5 17.283411
1716 17.445587
1716.5 17.28649
1717 17.185381
1717.5 17.365506
1718 17.24354
1718.5 17.424759
1719 17.188717
1719.5 17.4272
1720 17.25737
1720.5 17.38741
1721 17.299548
1721.5 17.362183
1722 17.342965
1722.5 17.341073
1723 17.400323
1723.5 17.206474
1724 17.448987
1724.5 17.35405
1725 17.428756
1725.5 17.341828
1726 17.566247
1726.5 17.505637
1727 17.528191
1727.5 17.479451
1728 17.562509
1728.5 17.662635
1729 17.525029
1729.5 17.668772
1730 17.504629
1730.5 17.528412
1731 17.465831
1731.5 17.572439
1732 17.549779
1732.5 17.455038
1733 17.607895
1733.5 17.506966
1734 17.56437
1734.5 17.428444
1735 17.689234
1735.5 17.40385
1736 17.711636
1736.5 17.566644
1737 17.568244
1737.5 17.567375
1738 17.60032
1738.5 17.685558
1739 17.569402
1739.5 17.803182
1740 17.631899
1740.5 17.7926
1741 17.637394
1741.5 17.724873
1742 17.646813
1742.5 17.721915
1743 17.730656
1743.5 17.655507
1744 17.780815
1744.5 17.538956
1745 17.83815
1745.5 17.521055
1746 17.848414
1746.5 17.651194
1747 17.88951
1747.5 17.762524
1748 17.825329
1748.5 17.816006
1749 17.66784
1749.5 17.927407
1750 17.784204
1750.5 17.957045
1751 17.780516
1751.5 18.017583
1752 17.927222
1752.5 17.933393
1753 17.956647
1753.5 17.897855
1754 18.117639
1754.5 17.939381
1755 18.159792
1755.5 17.992772
1756 18.244375
1756.5 17.92046
1757 18.042774
1757.5 17.958869
1758 17.936772
1758.5 18.029095
1759 17.920019
1759.5 18.02956
1760 17.823184
1760.5 18.1622
1761 17.937516
1761.5 18.133192
1762 18.040039
1762.5 18.101399
1763 18.097414
1763.5 18.083566
1764 18.12741
1764.5 18.016919
1765 18.288633
1765.5 18.123199
1766 18.226112
1766.5 18.13384
1767 18.277356
1767.5 18.209879
1768 18.325976
1768.5 18.223007
1769 18.199216
1769.5 18.407366
1770 18.15204
1770.5 18.271855
1771 18.049999
1771.5 18.317528
1772 18.123929
1772.5 18.323895
1773 18.188238
1773.5 18.230592
1774 18.212248
1774.5 18.223417
1775 18.269852
1775.5 18.196261
1776 18.387948
1776.5 18.204574
1777 18.397908
1777.5 18.263093
1778 18.340285
1778.5 18.421364
1779 18.357205
1779.5 18.447623
1780 18.333784
1780.5 18.532166
1781 18.324165
1781.5 18.548723
1782 18.331192
1782.5 18.575431
1783 18.384565
1783.5 18.540981
1784 18.499793
1784.5 18.488255
1785 18.586016
1785.5 18.400155
1786 18.641096
1786.5 18.58823
1787 18.689863
1787.5 18.557826
1788 18.691586
1788.5 18.735126
1789 18.535975
1789.5 18.756098
1790 18.506652
1790.5 18.74817
1791 18.547365
1791.5 18.895349
1792 18.48139
1792.5 18.771839
1793 18.681642
1793.5 18.835609
1794 18.816198
1794.5 18.652838
1795 18.894954
1795.5 18.752089
1796 18.897793
1796.5 18.697986
1797 18.935481
1797.5 18.760496
1798 18.728036
1798.5 18.668942
1799 18.692033
1799.5 18.817213
1800 18.795969
1800.5 19.076966
1801 18.910094
1801.5 19.084452
1802 18.937907
1802.5 19.062716
1803 18.824737
1803.5 18.921956
1804 18.955706
1804.5 18.812388
1805 18.875095
1805.5 18.667996
1806 19.20644
1806.5 19.08343
1807 19.097374
1807.5 18.863028
1808 18.944082
1808.5 18.880428
1809 18.873714
1809.5 18.908292
1810 18.947487
1810.5 19.154067
1811 19.027907
1811.5 19.201565
1812 19.079155
1812.5 19.33001
1813 19.159114
1813.5 19.112423
1814 19.009493
1814.5 18.844762
1815 19.146444
1815.5 19.296469
1816 19.457278
1816.5 19.020849
1817 19.166806
1817.5 19.015865
1818 19.194651
1818.5 19.009882
1819 18.915983
1819.5 19.006877
1820 19.155689
1820.5 19.303557
1821 19.206634
1821.5 19.558392
1822 19.257963
1822.5 19.570372
1823 19.374436
1823.5 19.33987
1824 19.245322
1824.5 19.150673
1825 19.266915
1825.5 19.092953
1826 19.580652
1826.5 19.338417
1827 19.543277
1827.5 19.11968
1828 19.315132
1828.5 19.173057
1829 19.364189
1829.5 19.21884
1830 19.331841
1830.5 19.388236
1831 19.435674
1831.5 19.762729
1832 19.598795
1832.5 19.663976
1833 19.391674
1833.5 19.497742
1834 19.341382
1834.5 19.190465
1835 19.385917
1835.5 19.262674
1836 19.601423
1836.5 19.405669
1837 19.688506
1837.5 19.475447
1838 19.754109
1838.5 19.461204
1839 19.441502
1839.5 19.325396
1840 19.436888
1840.5 19.410777
1841 19.547068
1841.5 19.775845
1842 19.575585
1842.5 20.025127
1843 19.809863
1843.5 19.845457
1844 19.598
1844.5 19.729614
1845 19.618374
1845.5 19.311373
1846 19.382899
1846.5 19.413778
1847 19.718032
1847.5 19.638142
1848 20.046769
1848.5 19.785619
1849 19.876224
1849.5 19.87209
1850 19.936463
1850.5 19.803552
1851 19.533385
1851.5 19.683142
1852 19.565858
1852.5 19.712722
1853 19.566151
1853.5 20.036103
1854 19.889313
1854.5 19.970548
1855 19.763154
1855.5 19.723605
1856 19.847488
1856.5 19.993246
1857 20.080402
1857.5 19.865432
1858 19.937976
1858.5 19.653872
1859 19.831784
1859.5 19.914754
1860 20.046823
1860.5 20.271805
1861 20.151687
1861.5 20.045832
1862 19.659786
1862.5 19.941592
1863 19.749159
1863.5 20.146893
1864 20.049314
1864.5 20.282146
1865 20.136999
1865.5 20.068394
1866 19.984663
1866.5 19.909391
1867 19.919574
1867.5 20.055449
1868 20.334142
1868.5 19.926295
1869 19.964741
1869.5 19.972762
1870 20.00877
1870.5 20.040411
1871 20.066744
1871.5 20.13201
1872 19.969298
1872.5 20.287305
1873 20.01946
1873.5 20.395325
1874 20.052789
1874.5 20.215203
1875 19.95991
1875.5 20.119564
1876 20.115523
1876.5 20.163156
1877 20.451958
1877.5 20.335045
1878 20.503448
1878.5 20.195986
1879 20.350476
1879.5 20.226887
1880 20.276353
1880.5 20.381118
1881 20.263344
1881.5 20.376289
1882 20.158483
1882.5 20.307113
1883 19.960894
1883.5 20.401864
1884 20.313573
1884.5 20.532058
1885 20.432763
1885.5 20.417772
1886 20.463048
1886.5 20.467876
1887 20.467612
1887.5 20.125906
1888 20.410414
1888.5 20.212777
1889 20.353425
1889.5 20.245057
1890 20.535934
1890.5 20.50252
1891 20.494901
1891.5 20.613998
1892 20.425576
1892.5 20.702589
1893 20.555732
1893.5 20.757972
1894 20.599881
1894.5 20.75817
1895 20.628627
1895.5 20.626213
1896 20.516151
1896.5 20.379625
1897 20.573811
1897.5 20.475033
1898 20.469166
1898.5 20.294699
1899 20.652485
1899.5 20.714471
1900 20.786838
1900.5 20.729019
1901 20.678309
1901.5 20.646961
1902 20.672856
1902.5 20.725128
1903 20.562506
1903.5 20.715035
1904 20.472178
1904.5 20.518525
1905 20.600899
1905.5 20.718694
1906 20.815264
1906.5 20.965603
1907 21.07027
1907.5 20.767918
1908 20.94503
1908.5 20.715603
1909 20.794445
1909.5 20.575137
1910 20.806454
1910.5 20.589021
1911 20.739785
1911.5 20.746954
1912 20.588692
1912.5 20.814444
1913 20.813814
1913.5 20.947203
1914 20.812602
1914.5 21.128081
1915 21.009681
1915.5 21.083926
1916 21.11693
1916.5 21.040377
1917 21.085975
1917.5 20.752206
1918 20.882176
1918.5 20.616123
1919 20.781249
1919.5 20.610523
1920 21.146168
1920.5 21.051145
1921 21.121632
1921.5 21.039404
1922 20.950037
1922.5 21.02244
1923 20.809805
1923.5 21.071693
1924 20.850173
1924.5 21.190211
1925 20.918125
1925.5 20.903094
1926 20.768704
1926.5 20.934936
1927 21.086662
1927.5 20.819044
1928 21.152951
1928.5 20.955494
1929 21.159042
1929.5 20.948015
1930 21.191731
1930.5 21.06135
1931 21.11109
1931.5 21.143182
1932 21.10005
1932.5 21.127462
1933 20.942464
1933.5 21.256866
1934 21.10219
1934.5 21.313569
1935 21.116652
1935.5 21.364661
1936 21.228299
1936.5 21.207277
1937 21.305197
1937.5 21.184891
1938 21.286567
1938.5 21.218048
1939 21.393676
1939.5 21.233293
1940 21.410479
1940.5 21.3517
1941 21.448538
1941.5 21.26002
1942 21.243203
1942.5 21.469073
1943 21.369998
1943.5 21.431629
1944 21.26233
1944.5 21.582338
1945 21.328947
1945.5 21.580452
1946 21.423368
1946.5 21.471843
1947 21.514904
1947.5 21.473214
1948 21.66301
1948.5 21.452205
1949 21.63091
1949.5 21.514624
1950 21.664332
1950.5 21.48999
1951 21.595263
1951.5 21.634549
1952 21.659875
1952.5 21.644054
1953 21.518223
1953.5 21.717735
1954 21.544158
1954.5 21.729822
1955 21.517868
1955.5 21.77154
1956 21.588983
1956.5 21.774411
1957 21.653855
1957.5 21.731201
1958 21.772495
1958.5 21.70946
1959 21.858214
1959.5 21.758813
1960 21.931167
1960.5 21.748568
1961 21.890034
1961.5 21.730424
1962 21.802658
1962.5 21.907105
1963 21.803068
1963.5 21.918802
1964 21.664976
1964.5 21.925843
1965 21.702231
1965.5 21.977597
1966 21.808083
1966.5 21.97462
1967 21.928991
1967.5 21.917945
1968 22.060001
1968.5 21.941754
1969 22.01723
1969.5 21.89173
1970 22.139096
1970.5 21.963608
1971 22.10785
1971.5 22.055115
1972 22.070698
1972.5 22.099312
1973 21.97333
1973.5 22.207195
1974 21.888044
1974.5 22.270972
1975 21.985067
1975.5 22.208643
1976 22.006142
1976.5 22.152112
1977 22.124523
1977.5 22.130264
1978 22.192436
1978.5 21.930091
1979 22.242041
1979.5 22.105692
1980 22.30272
1980.5 22.279471
1981 22.367811
1981.5 22.252375
1982 22.216573
1982.5 22.294894
1983 22.228518
1983.5 22.395746
1984 22.279876
1984.5 22.441696
1985 22.215855
1985.5 22.334573
1986 22.197054
1986.5 22.389334
1987 22.323433
1987.5 22.230759
1988 22.418202
1988.5 22.360301
1989 22.474484
1989.5 22.22537
1990 22.46211
1990.5 22.401401
1991 22.508571
1991.5 22.364785
1992 22.528934
1992.5 22.566596
1993 22.533566
1993.5 22.595145
1994 22.460739
1994.5 22.647293
1995 22.430314
1995.5 22.618343
1996 22.505474
1996.5 22.63146
1997 22.654314
1997.5 22.613283
1998 22.6217
1998.5 22.462074
1999 22.638148
1999.5 22.434226
2000 22.599852
2000.5 22.412027
2001 22.738166
2001.5 22.550508
2002 22.737451
2002.5 22.72204
2003 22.653167
2003.5 22.681305
2004 22.644116
2004.5 22.735755
2005 22.643609
2005.5 22.813396
2006 22.650714
2006.5 22.867568
2007 22.736548
2007.5 22.724801
2008 22.774504
2008.5 22.780634
2009 22.841875
2009.5 22.693647
2010 23.002964
2010.5 22.73549
2011 22.843391
2011.5 22.598414
2012 22.735721
2012.5 22.723369
2013 22.796236
2013.5 22.808671
2014 22.770213
2014.5 22.924499
2015 22.725755
2015.5 22.976097
2016 22.80024
2016.5 22.922017
2017 22.88267
2017.5 22.961047
2018 22.956681
2018.5 22.884354
2019 23.040456
2019.5 22.833066
2020 23.158914
2020.5 22.969733
2021 23.21403
2021.5 23.047142
2022 22.983348
2022.5 22.956827
2023 22.982962
2023.5 22.937429
2024 22.788686
2024.5 23.063342
2025 22.951134
2025.5 23.164225
2026 23.013954
2026.5 23.242083
2027 23.19749
2027.5 23.159212
2028 23.154847
2028.5 23.014155
2029 23.236339
2029.5 22.973908
2030 23.18539
2030.5 22.966439
2031 23.225819
2031.5 23.048767
2032 23.166893
2032.5 23.133737
2033 23.1554
2033.5 23.336175
2034 23.180106
2034.5 23.25864
2035 23.05411
2035.5 23.358104
2036 23.113443
2036.5 23.308374
2037 23.205508
2037.5 23.370178
2038 23.266406
2038.5 23.222297
2039 23.29822
2039.5 23.218985
2040 23.35878
2040.5 23.227689
2041 23.441681
2041.5 23.285295
2042 23.406999
2042.5 23.400398
2043 23.57145
2043.5 23.342504
2044 23.22316
2044.5 23.460807
2045 23.314044
2045.5 23.448156
2046 23.307064
2046.5 23.576944
2047 23.440468
2047.5 23.400863
2048 23.451026
2048.5 23.487356
2049 23.600933
2049.5 23.56561
2050 23.627031
2050.5 23.403965
2051 23.650856
2051.5 23.49644
2052 23.66171
2052.5 23.504578
2053 23.442173
2053.5 23.584746
2054 23.564574
2054.5 23.629306
2055 23.309898
2055.5 23.70066
2056 23.307885
2056.5 23.637013
2057 23.522569
2057.5 23.689783
2058 23.584951
2058.5 23.705557
2059 23.786122
2059.5 23.638603
2060 23.70182
2060.5 23.559029
2061 23.836656
2061.5 23.639943
2062 23.789978
2062.5 23.778839
2063 23.908918
2063.5 23.776126
2064 23.566779
2064.5 23.756917
2065 23.605382
2065.5 23.882864
2066 23.707406
2066.5 23.943999
2067 23.67171
2067.5 23.864448
2068 23.75827
2068.5 23.768033
2069 23.899277
2069.5 23.68308
2070 23.998179
2070.5 23.859601
2071 24.012005
2071.5 23.696989
2072 23.969874
2072.5 23.840384
2073 23.889397
2073.5 23.933887
2074 23.905282
2074.5 24.122147
2075 23.880275
2075.5 24.081977
2076 23.844087
2076.5 24.026649
2077 23.878182
2077.5 23.977333
2078 23.92686
2078.5 23.982519
2079 24.197154
2079.5 24.079889
2080 24.073254
2080.5 23.789674
2081 24.12771
2081.5 24.078479
2082 24.16548
2082.5 24.114136
2083 24.172518
2083.5 24.027385
2084 24.085312
2084.5 24.209563
2085 24.078324
2085.5 24.337111
2086 24.066886
2086.5 24.221478
2087 24.077795
2087.5 24.287926
2088 24.224463
2088.5 24.294847
2089 24.146268
2089.5 24.069248
2090 24.247162
2090.5 24.216619
2091 24.215011
2091.5 24.06958
2092 24.319278
2092.5 24.071293
2093 24.176875
2093.5 24.263984
2094 24.348801
2094.5 24.429612
2095 24.299252
2095.5 24.312896
2096 24.263899
2096.5 24.467148
2097 24.283478
2097.5 24.492593
2098 24.287681
2098.5 24.268417
2099 24.382305
2099.5 24.434657
2100 24.4261
2100.5 24.29875
2101 24.586757
2101.5 24.291912
2102 24.520032
2102.5 24.2469
2103 24.484171
2103.5 24.444756
2104 24.567476
2104.5 24.58238
2105 24.55138
2105.5 24.650626
2106 24.409443
2106.5 24.69635
2107 24.494241
2107.5 24.704774
2108 24.560192
2108.5 24.674305
2109 24.562754
2109.5 24.534625
2110 24.601334
2110.5 24.493146
2111 24.703488
2111.5 24.497096
2112 24.743888
2112.5 24.497138
2113 24.740772
2113.5 24.598819
2114 24.662536
2114.5 24.745208
2115 24.637207
2115.5 24.801931
2116 24.581826
2116.5 24.76082
2117 24.552257
2117.5 24.842346
2118 24.704477
2118.5 24.776502
2119 24.846481
2119.5 24.802862
2120 24.960428
2120.5 24.648713
2121 24.887311
2121.5 24.563551
2122 24.90492
2122.5 24.695463
2123 24.829762
2123.5 24.809067
2124 24.813983
2124.5 24.947876
2125 24.91716
2125.5 24.986799
2126 24.55367
2126.5 24.947192
2127 24.89915
2127.5 25.061214
2128 24.903333
2128.5 25.036004
2129 25.032184
2129.5 25.029048
2130 25.025102
2130.5 24.893346
2131 25.080529
2131.5 24.922761
2132 25.024799
2132.5 24.891137
2133 25.028229
2133.5 25.015041
2134 25.1414
2134.5 25.096789
2135 24.996118
2135.5 25.15693
2136 24.941598
2136.5 25.111613
2137 24.887343
2137.5 25.17859
2138 24.996915
2138.5 25.209877
2139 25.124198
2139.5 25.228053
2140 25.29968
2140.5 25.304523
2141 25.404236
2141.5 25.056362
2142 25.151882
2142.5 25.058788
2143 25.252309
2143.5 25.118384
2144 25.259957
2144.5 25.255483
2145 25.337172
2145.5 25.252494
2146 25.17826
2146.5 25.422534
2147 25.12365
2147.5 25.319019
2148 25.178996
2148.5 25.332424
2149 25.188559
2149.5 25.385571
2150 25.403151
2150.5 25.315157
2151 25.431237
2151.5 25.306731
2152 25.567672
2152.5 25.416723
2153 25.597942
2153.5 25.340706
2154 25.513992
2154.5 25.350288
2155 25.329608
2155.5 25.469449
2156 25.343993
2156.5 25.667498
2157 25.378847
2157.5 25.591469
2158 25.222069
2158.5 25.635275
2159 25.449166
2159.5 25.430968
2160 25.498357
2160.5 25.328645
2161 25.555131
2161.5 25.528917
2162 25.658301
2162.5 25.438628
2163 25.751933
2163.5 25.708157
2164 25.693607
2164.5 25.688067
2165 25.595814
2165.5 25.701615
2166 25.516787
2166.5 25.768235
2167 25.474349
2167.5 25.701952
2168 25.558922
2168.5 25.736126
2169 25.616196
2169.5 25.670835
2170 25.770897
2170.5 25.709495
2171 25.887147
2171.5 25.655016
2172 25.97146
2172.5 25.693533
2173 25.895438
2173.5 25.658914
2174 25.82705
2174.5 25.830591
2175 25.828964
2175.5 25.959703
2176 25.751761
2176.5 25.995865
2177 25.88959
2177.5 26.074895
2178 25.865677
2178.5 26.054713
2179 25.9716
2179.5 25.895762
2180 25.726515
2180.5 25.822851
2181 26.01704
2181.5 25.976193
2182 26.11337
2182.5 25.825649
2183 26.152241
2183.5 26.024914
2184 26.126873
2184.5 25.942716
2185 26.018357
2185.5 26.020601
2186 26.099482
2186.5 26.162964
2187 25.982216
2187.5 26.18773
2188 25.972012
2188.5 26.170176
2189 26.041037
2189.5 26.131055
2190 26.261994
2190.5 26.285604
2191 26.302642
2191.5 26.12623
2192 26.309422
2192.5 25.991422
2193 26.136857
2193.5 25.982639
2194 26.257503
2194.5 26.044989
2195 26.277992
2195.5 26.203054
2196 26.224267
2196.5 26.347461
2197 26.233044
2197.5 26.496893
2198 26.292837
2198.5 26.447263
2199 26.183069
2199.5 26.391345
2200 26.277918
2200.5 26.317394
2201 26.419291
2201.5 26.267174
2202 26.457354
2202.5 26.206079
2203 26.496583
2203.5 26.18033
2204 26.617393
2204.5 26.391909
2205 26.580566
2205.5 26.512372
2206 26.291186
2206.5 26.426858
2207 26.370689
2207.5 26.542467
2208 26.271796
2208.5 26.618844
2209 26.485482
2209.5 26.638904
2210 26.485881
2210.5 26.63281
2211 26.689222
2211.5 26.55834
2212 26.818705
2212.5 26.544523
2213 26.663184
2213.5 26.495498
2214 26.70483
2214.5 26.508093
2215 26.659721
2215.5 26.676297
2216 26.668754
2216.5 26.705775
2217 26.461297
2217.5 26.741293
2218 26.626247
2218.5 26.801932
2219 26.576313
2219.5 26.928332
2220 26.694289
2220.5 26.742148
2221 26.652402
2221.5 26.742339
2222 26.831481
2222.5 26.725423
2223 26.941696
2223.5 26.696652
2224 26.87757
2224.5 26.886198
2225 26.908752
2225.5 26.753286
2226 26.642138
2226.5 26.865453
2227 26.817897
2227.5 26.92005
2228 26.635915
2228.5 26.974687
2229 26.766759
2229.5 27.038926
2230 26.82904
2230.5 27.034256
2231 27.025792
2231.5 27.09744
2232 26.99064
2232.5 26.830453
2233 27.023587
2233.5 26.87718
2234 27.019998
2234.5 26.911396
2235 26.98254
2235.5 27.099898
2236 27.054819
2236.5 27.127549
2237 26.941103
2237.5 27.157971
2238 27.082297
2238.5 27.24123
2239 26.855758
2239.5 27.104306
2240 26.903933
2240.5 27.087572
2241 27.086362
2241.5 27.111545
2242 27.092141
2242.5 27.094331
2243 27.213365
2243.5 27.084583
2244 27.327651
2244.5 27.160969
2245 27.408332
2245.5 27.290937
2246 27.271217
2246.5 27.148864
2247 27.178147
2247.5 27.334654
2248 27.058616
2248.5 27.355483
2249 27.034265
2249.5 27.385542
2250 27.2468
2250.5 27.346629
2251 27.297214
2251.5 27.282387
2252 27.275684
2252.5 27.248809
2253 27.310887
2253.5 27.061471
2254 27.402872
2254.5 27.362549
2255 27.46422
2255.5 27.354696
2256 27.495477
2256.5 27.37411
2257 27.327502
2257.5 27.449095
2258 27.291855
2258.5 27.537632
2259 27.325124
2259.5 27.491996
2260 27.231547
2260.5 27.438432
2261 27.410918
2261.5 27.446344
2262 27.45904
2262.5 27.277663
2263 27.531886
2263.5 27.418321
2264 27.567834
2264.5 27.401841
2265 27.684605
2265.5 27.43046
2266 27.682322
2266.5 27.543783
2267 27.503604
2267.5 27.560762
2268 27.514583
2268.5 27.592
2269 27.466795
2269.5 27.667975
2270 27.518266
2270.5 27.627596
2271 27.545905
2271.5 27.66372
2272 27.805802
2272.5 27.73366
2273 27.743861
2273.5 27.486056
2274 27.778253
2274.5 27.386898
2275 27.787566
2275.5 27.472025
2276 27.745551
2276.5 27.616629
2277 27.835235
2277.5 27.684355
2278 27.713054
2278.5 27.798584
2279 27.797571
2279.5 27.875128
2280 27.700201
2280.5 27.888024
2281 27.699399
2281.5 27.924204
2282 27.723712
2282.5 27.668178
2283 27.823731
2283.5 27.762985
2284 27.860373
2284.5 27.661097
2285 27.956614
2285.5 27.627742
2286 28.001487
2286.5 27.827382
2287 27.852097
2287.5 27.79381
2288 27.775341
2288.5 27.907181
2289 27.877209
2289.5 27.97702
2290 27.72657
2290.5 28.032631
2291 27.878252
2291.5 28.01801
2292 27.976519
2292.5 27.997056
2293 28.069067
2293.5 27.997252
2294 28.112823
2294.5 27.803054
2295 28.100678
2295.5 27.938613
2296 28.076842
2296.5 27.868891
2297 28.053045
2297.5 27.990314
2298 28.045082
2298.5 28.052288
2299 27.896929
2299.5 28.152409
2300 27.959657
2300.5 28.178608
2301 27.998513
2301.5 28.281951
2302 28.154248
2302.5 28.250769
2303 28.274196
2303.5 28.19508
2304 28.434369
2304.5 28.095323
2305 28.250921
2305.5 28.038913
2306 28.271458
2306.5 28.214121
2307 28.289872
2307.5 28.18507
2308 28.161493
2308.5 28.332299
2309 28.329685
2309.5 28.421518
2310 28.176835
2310.5 28.512257
2311 28.324205
2311.5 28.426945
2312 28.227797
2312.5 28.453863
2313 28.345308
2313.5 28.404427
2314 28.456289
2314.5 28.355142
2315 28.517446
2315.5 28.315595
2316 28.531769
2316.5 28.391057
2317 28.465721
2317.5 28.456521
2318 28.45858
2318.5 28.526148
2319 28.407243
2319.5 28.593844
2320 28.509685
2320.5 28.670171
2321 28.285116
2321.5 28.62595
2322 28.413919
2322.5 28.594705
2323 28.520599
2323.5 28.64688
2324 28.644818
2324.5 28.61481
2325 28.652701
2325.5 28.586888
2326 28.768018
2326.5 28.547549
2327 28.797421
2327.5 28.622377
2328 28.669742
2328.5 28.670263
2329 28.631142
2329.5 28.803909
2330 28.587916
2330.5 28.934774
2331 28.605184
2331.5 28.951243
2332 28.577495
2332.5 28.760457
2333 28.758222
2333.5 28.80621
2334 28.850126
2334.5 28.804061
2335 28.899065
2335.5 28.633037
2336 28.920406
2336.5 28.814018
2337 28.995374
2337.5 28.711605
2338 28.950277
2338.5 28.836605
2339 28.915197
2339.5 28.903627
2340 28.738794
2340.5 29.095536
2341 28.84821
2341.5 29.166672
2342 28.980491
2342.5 29.151356
2343 29.066947
2343.5 29.147896
2344 29.070777
2344.5 28.876781
2345 29.00418
2345.5 28.978369
2346 29.078034
2346.5 28.849229
2347 29.09559
2347.5 28.988987
2348 29.098105
2348.5 29.014716
2349 29.118934
2349.5 29.195601
2350 29.249966
2350.5 29.307303
2351 29.210648
2351.5 29.429176
2352 29.125974
2352.5 29.256871
2353 29.062393
2353.5 29.100955
2354 29.159176
2354.5 29.233471
2355 29.207009
2355.5 29.036692
2356 29.292673
2356.5 29.073042
2357 29.346016
2357.5 29.122907
2358 29.366651
2358.5 29.195786
2359 29.457149
2359.5 29.394454
2360 29.373237
2360.5 29.520008
2361 29.236418
2361.5 29.479042
2362 29.30319
2362.5 29.452702
2363 29.285654
2363.5 29.432994
2364 29.348266
2364.5 29.390678
2365 29.48913
2365.5 29.439571
2366 29.616693
2366.5 29.398569
2367 29.668015
2367.5 29.17439
2368 29.582638
2368.5 29.362968
2369 29.605055
2369.5 29.538816
2370 29.460812
2370.5 29.541752
2371 29.502615
2371.5 29.662398
2372 29.42237
2372.5 29.720029
2373 29.560679
2373.5 29.732171
2374 29.696476
2374.5 29.690167
2375 29.616308
2375.5 29.538485
2376 29.752043
2376.5 29.585642
2377 29.715246
2377.5 29.524887
2378 29.745635
2378.5 29.54976
2379 29.662478
2379.5 29.73659
2380 29.736778
2380.5 29.755712
2381 29.59412
2381.5 29.881135
2382 29.770964
2382.5 29.80693
2383 29.661915
2383.5 29.849923
2384 29.799929
2384.5 29.794329
2385 29.81554
2385.5 29.798496
2386 29.922688
2386.5 29.776078
2387 29.991537
2387.5 29.779661
2388 29.987493
2388.5 29.865524
2389 30.009198
2389.5 29.883924
2390 29.899457
2390.5 29.865152
2391 29.875925
2391.5 30.007187
2392 29.733762
2392.5 30.032414
2393 29.858792
2393.5 30.031353
2394 29.883
2394.5 30.065724
2395 29.945251
2395.5 30.110723
2396 30.147409
2396.5 30.041859
2397 30.269623
2397.5 30.121627
2398 30.352369
2398.5 30.027002
2399 30.138054
2399.5 30.04311
2400 30.145168
2400.5 30.039427
2401 29.997888
2401.5 30.150595
2402 30.109972
2402.5 30.228233
2403 30.067384
2403.5 30.439246
2404 30.117837
2404.5 30.312443
2405 30.098128
2405.5 30.180383
2406 30.162039
2406.5 30.191153
2407 30.238077
2407.5 30.178568
2408 30.355841
2408.5 30.181268
2409 30.438316
2409.5 30.224097
2410 30.343029
2410.5 30.427545
2411 30.418703
2411.5 30.481812
2412 30.290541
2412.5 30.449045
2413 30.189809
2413.5 30.505288
2414 30.220282
2414.5 30.484164
2415 30.336168
2415.5 30.548295
2416 30.557621
2416.5 30.475131
2417 30.448154
2417.5 30.214167
2418 30.588108
2418.5 30.423421
2419 30.587783
2419.5 30.427313
2420 30.598924
2420.5 30.509296
2421 30.553859
2421.5 30.579704
2422 30.47865
2422.5 30.618024
2423 30.416074
2423.5 30.672291
2424 30.462512
2424.5 30.758053
2425 30.708081
2425.5 30.739766
2426 30.669463
2426.5 30.543897
2427 30.708876
2427.5 30.583951
2428 30.733475
2428.5 30.461791
2429 30.824214
2429.5 30.589169
2430 30.747253
2430.5 30.700874
2431 30.82599
2431.5 30.721635
2432 30.74272
2432.5 30.874094
2433 30.723357
2433.5 30.945337
2434 30.613935
2434.5 30.866039
2435 30.748379
2435.5 30.805793
2436 30.861357
2436.5 30.838314
2437 30.797598
2437.5 30.658424
2438 30.889919
2438.5 30.73619
2439 30.897027
2439.5 30.578202
2440 30.898458
2440.5 30.782321
2441 31.011963
2441.5 30.931151
2442 31.012648
2442.5 31.054071
2443 30.844757
2443.5 31.049052
2444 30.882514
2444.5 31.111953
2445 30.804572
2445.5 31.091067
2446 30.963722
2446.5 31.002858
2447 30.997628
2447.5 30.896217
2448 30.974653
2448.5 30.78689
2449 31.069362
2449.5 30.790359
2450 31.154317
2450.5 30.900431
2451 31.115276
2451.5 31.055608
2452 31.101996
2452.5 31.168529
2453 31.174603
2453.5 31.255871
2454 31.017163
2454.5 31.216067
2455 31.050226
2455.5 31.175342
2456 31.049511
2456.5 31.186038
2457 31.140283
2457.5 31.103209
2458 31.277645
2458.5 31.119108
2459 31.416368
2459.5 31.154606
2460 31.266269
2460.5 31.017289
2461 31.170207
2461.5 31.135768
2462 31.270602
2462.5 31.197849
2463 31.078464
2463.5 31.389293
2464 31.219447
2464.5 31.362295
2465 31.141877
2465.5 31.448495
2466 31.332999
2466.5 31.487224
2467 31.394124
2467.5 31.376761
2468 31.463572
2468.5 31.209922
2469 31.395829
2469.5 31.228572
2470 31.509125
2470.5 31.354973
2471 31.511688
2471.5 31.435493
2472 31.50616
2472.5 31.587341
2473 31.547859
2473.5 31.605631
2474 31.348619
2474.5 31.612778
2475 31.451765
2475.5 31.686059
2476 31.530121
2476.5 31.705347
2477 31.585118
2477.5 31.484377
2478 31.597695
2478.5 31.550509
2479 31.649876
2479.5 31.631181
2480 31.778121
2480.5 31.640139
2481 31.725991
2481.5 31.528604
2482 31.698105
2482.5 31.657076
2483 31.660548
2483.5 31.663361
2484 31.587824
2484.5 31.726578
2485 31.411463
2485.5 31.792116
2486 31.555113
2486.5 31.800514
2487 31.674886
2487.5 31.756243
2488 31.773832
2488.5 31.726918
2489 31.846344
2489.5 31.645402
2490 31.898689
2490.5 31.753838
2491 32.073492
2491.5 31.716734
2492 31.822821
2492.5 31.870732
2493 31.899431
2493.5 32.005313
2494 31.760487
2494.5 31.991488
2495 31.836572
2495.5 32.07916
2496 31.806654
2496.5 32.008141
2497 31.8418
2497.5 31.955901
2498 31.919301
2498.5 31.979647
2499 32.046819
2499.5 31.797114
2500 32.128027
2500.5 32.061973
2501 32.191321
2501.5 31.856793
2502 32.080799
2502.5 32.062364
2503 32.040462
2503.5 32.102561
2504 32.058787
2504.5 32.27239
2505 32.039547
2505.5 32.367155
2506 32.067961
2506.5 32.160223
2507 32.059953
2507.5 32.152596
2508 32.05395
2508.5 32.051438
2509 32.172182
2509.5 32.115409
2510 32.189038
2510.5 32.010219
2511 32.344437
2511.5 32.113382
2512 32.212603
2512.5 32.167789
2513 32.295147
2513.5 32.10631
2514 32.119983
2514.5 32.35895
2515 32.209891
2515.5 32.532859
2516 32.303637
2516.5 32.453644
2517 32.29115
2517.5 32.485944
2518 32.41033
2518.5 32.3636
2519 32.415381
2519.5 32.21837
2520 32.457912
2520.5 32.292253
2521 32.474017
2521.5 32.254022
2522 32.497865
2522.5 32.314536
2523 32.494217
2523.5 32.393658
2524 32.438201
2524.5 32.450721
2525 32.378811
2525.5 32.61297
2526 32.400021
2526.5 32.67296
2527 32.481191
2527.5 32.529458
2528 32.507724
2528.5 32.561094
2529 32.631779
2529.5 32.446554
2530 32.545039
2530.5 32.365859
2531 32.575706
2531.5 32.205224
2532 32.551563
2532.5 32.540008
2533 32.688075
2533.5 32.582897
2534 32.562456
2534.5 32.693693
2535 32.584715
2535.5 32.874325
2536 32.661697
2536.5 33.106464
2537 32.783446
2537.5 32.766572
2538 32.616863
2538.5 32.653499
2539 32.709679
2539.5 32.670701
2540 32.867926
2540.5 32.68556
2541 32.915261
2541.5 32.677954
2542 32.876578
2542.5 32.641956
2543 32.828951
2543.5 32.702982
2544 32.744017
2544.5 32.861048
2545 32.615072
2545.5 32.765234
2546 32.689762
2546.5 32.926968
2547 32.660949
2547.5 32.849595
2548 32.704297
2548.5 32.744998
2549 32.783985
2549.5 32.70444
2550 32.944849
2550.5 32.776999
2551 32.9615
2551.5 32.711902
2552 32.960933
2552.5 32.948267
2553 33.023784
2553.5 32.973814
2554 32.968619
2554.5 33.164722
2555 33.080032
2555.5 33.103922
2556 32.859272
2556.5 33.238551
2557 33.05918
2557.5 33.299938
2558 33.049169
2558.5 33.193687
2559 33.262971
2559.5 33.177114
2560 33.273444
2560.5 33.152238
2561 33.206925
2561.5 32.863611
2562 33.067927
2562.5 32.858744
2563 32.832539
2563.5 32.816142
2564 32.864532
2564.5 32.902789
2565 32.828897
2565.5 33.137986
2566 33.115485
2566.5 33.257258
2567 32.904944
2567.5 33.188549
2568 32.98789
2568.5 33.261868
2569 33.172694
2569.5 33.281884
2570 33.293232
2570.5 33.1413
2571 33.199844
2571.5 32.930499
2572 33.182997
2572.5 33.150023
2573 33.503857
2573.5 33.30023
2574 33.345947
2574.5 33.332649
2575 33.188051
2575.5 33.305573
2576 33.129373
2576.5 33.468068
2577 33.114946
2577.5 33.441186
2578 33.152258
2578.5 33.343881
2579 33.380747
2579.5 33.489794
2580 33.458567
2580.5 33.311838
2581 33.530584
2581.5 33.234662
2582 33.54831
2582.5 33.286896
2583 33.337086
2583.5 33.34935
2584 33.407527
2584.5 33.400768
2585 33.174655
2585.5 33.306721
2586 33.112612
2586.5 33.387354
2587 33.117783
2587.5 33.488435
2588 33.311054
2588.5 33.443469
2589 33.352658
2589.5 33.428547
2590 33.450046
2590.5 33.209208
2591 33.529162
2591.5 33.488807
2592 33.569628
2592.5 33.386517
2593 33.726647
2593.5 33.566985
2594 33.559746
2594.5 33.430713
2595 33.357486
2595.5 33.542284
2596 33.235911
2596.5 33.409646
2597 33.029553
2597.5 33.521947
2598 33.442086
2598.5 33.509901
2599 33.44228
2599.5 33.610898
2600 33.837688
2600.5 33.840075
2601 33.954442
2601.5 33.750725
2602 34.021413
2602.5 33.824712
2603 33.951738
2603.5 33.745342
2604 33.823529
2604.5 33.701673
2605 33.633268
2605.5 33.579439
2606 33.320665
2606.5 33.590683
2607 33.312058
2607.5 33.55954
2608 33.406478
2608.5 33.591381
2609 33.765694
2609.5 33.900383
2610 33.970788
2610.5 33.664328
2611 33.896521
2611.5 33.815497
2612 34.040913
2612.5 33.863273
2613 34.189525
2613.5 33.942837
2614 34.078339
2614.5 34.017009
2615 33.992124
2615.5 33.959955
2616 34.005499
2616.5 34.201166
2617 33.847916
2617.5 34.049734
2618 33.718112
2618.5 33.760905
2619 33.68021
2619.5 33.699724
2620 33.660892
2620.5 33.572063
2621 33.437362
2621.5 33.476046
2622 33.890516
2622.5 33.729467
2623 33.994982
2623.5 33.86994
2624 34.006485
2624.5 33.991709
2625 34.163135
2625.5 34.275371
2626 34.241951
2626.5 34.185427
2627 34.163007
2627.5 34.181407
2628 34.018818
2628.5 34.070596
2629 34.001985
2629.5 34.057286
2630 33.811626
2630.5 33.679426
2631 33.621907
2631.5 33.464757
2632 33.761778
2632.5 33.55974
2633 33.825043
2633.5 33.583945
2634 34.088686
2634.5 33.818203
2635 34.393036
2635.5 34.302333
2636 34.394401
2636.5 34.563008
2637 34.437111
2637.5 34.651071
2638 34.48661
2638.5 34.728372
2639 34.424379
2639.5 34.695494
2640 34.585187
2640.5 34.528136
2641 34.555236
2641.5 34.578776
2642 34.745815
2642.5 34.452808
2643 34.742713
2643.5 34.442922
2644 34.788415
2644.5 34.481657
2645 34.757659
2645.5 34.652323
2646 34.656629
2646.5 34.802443
2647 34.581488
2647.5 34.764925
2648 34.468704
2648.5 34.848669
2649 34.658659
2649.5 34.949505
2650 34.741977
2650.5 35.000193
2651 34.981984
2651.5 34.891707
2652 34.906903
2652.5 34.835726
2653 34.908271
2653.5 34.619257
2654 34.854314
2654.5 34.541517
2655 34.809038
2655.5 34.76705
2656 34.807712
2656.5 34.780526
2657 34.702495
2657.5 34.974739
2658 34.866917
2658.5 34.942058
2659 34.819093
2659.5 35.145697
2660 34.970599
2660.5 35.084516
2661 35.158858
2661.5 35.278043
2662 35.195664
2662.5 35.143727
2663 35.131678
2663.5 35.134944
2664 35.405186
2664.5 35.263708
2665 35.368028
2665.5 35.026115
2666 35.044917
2666.5 34.930444
2667 34.822181
2667.5 34.671286
2668 34.456593
2668.5 34.708303
2669 34.327838
2669.5 34.732363
2670 34.40682
2670.5 34.662333
2671 34.36228
2671.5 34.460807
2672 34.485066
2672.5 34.41456
2673 34.624729
2673.5 34.430811
2674 34.836897
2674.5 34.516045
2675 34.72966
2675.5 34.678313
2676 34.757835
2676.5 34.605482
2677 34.572956
2677.5 34.787306
2678 34.536046
2678.5 34.683564
2679 34.446082
2679.5 34.616211
2680 34.21821
2680.5 34.623927
2681 34.379184
2681.5 34.649262
2682 34.668517
2682.5 34.724364
2683 34.946087
2683.5 34.853268
2684 35.131124
2684.5 34.832871
2685 35.316199
2685.5 35.15802
2686 35.254323
2686.5 35.11048
2687 35.249215
2687.5 35.213113
2688 35.050657
2688.5 35.238504
2689 35.069329
2689.5 35.3971
2690 35.160244
2690.5 35.385066
2691 35.242724
2691.5 35.396683
2692 35.323057
2692.5 35.339677
2693 35.338929
2693.5 35.146663
2694 35.479552
2694.5 35.319689
2695 35.391694
2695.5 35.145089
2696 35.265961
2696.5 35.018221
2697 35.042983
2697.5 35.117427
2698 35.119253
2698.5 35.383007
2699 35.352948
2699.5 35.520503
2700 35.451931
2700.5 35.775578
2701 35.569161
2701.5 35.567689
2702 35.415724
2702.5 35.493508
2703 35.612527
2703.5 35.487175
2704 35.651746
2704.5 35.463411
2705 35.826066
2705.5 35.674816
2706 35.880521
2706.5 35.627174
2707 35.825294
2707.5 35.693735
2708 35.690075
2708.5 35.701308
2709 35.53879
2709.5 35.81112
2710 35.484627
2710.5 35.691917
2711 35.26563
2711.5 35.45478
2712 35.363406
2712.5 35.287222
2713 35.207027
2713.5 35.157493
2714 35.466957
2714.5 35.352397
2715 35.578352
2715.5 35.441837
2716 35.80572
2716.5 35.676914
2717 35.981604
2717.5 35.88621
2718 36.032757
2718.5 36.062914
2719 36.001238
2719.5 36.009875
2720 35.843801
2720.5 35.979959
2721 35.622391
2721.5 35.661626
2722 35.143825
2722.5 34.989139
2723 35.087511
2723.5 34.762666
2724 34.852076
2724.5 34.495446
2725 34.890887
2725.5 34.603122
2726 35.230377
2726.5 35.096154
2727 35.331836
2727.5 35.415703
2728 35.534915
2728.5 35.704991
2729 35.855815
2729.5 35.921562
2730 35.707432
2730.5 36.151338
2731 36.006862
2731.5 36.193404
2732 36.089832
2732.5 36.270362
2733 36.10653
2733.5 36.085194
2734 36.415285
2734.5 36.26177
2735 36.49587
2735.5 36.170271
2736 36.316821
2736.5 36.095363
2737 36.196363
2737.5 35.985112
2738 36.011302
2738.5 35.853839
2739 35.523286
2739.5 35.81194
2740 35.545591
2740.5 35.514256
2741 35.136148
2741.5 35.328069
2742 35.015956
2742.5 35.265687
2743 35.040069
2743.5 35.10322
2744 35.269824
2744.5 35.258889
2745 35.591763
2745.5 35.552835
2746 35.999104
2746.5 35.663003
2747 35.861924
2747.5 35.813576
2748 36.063674
2748.5 36.215061
2749 36.157316
2749.5 36.334205
2750 36.175251
2750.5 36.455768
2751 36.280417
2751.5 36.452833
2752 36.164111
2752.5 36.488631
2753 36.304912
2753.5 36.400858
2754 36.338165
2754.5 36.233655
2755 36.376485
2755.5 36.160836
2756 36.263761
2756.5 35.91606
2757 35.939649
2757.5 35.834503
2758 35.904744
2758.5 35.884333
2759 35.784492
2759.5 35.933366
2760 35.800013
2760.5 35.958114
2761 35.585904
2761.5 36.137146
2762 35.932302
2762.5 36.408901
2763 36.132225
2763.5 36.287889
2764 36.155787
2764.5 36.136901
2765 36.290005
2765.5 36.019745
2766 36.208001
2766.5 35.74532
2767 36.064762
2767.5 35.765275
2768 35.887933
2768.5 35.773063
2769 35.755128
2769.5 35.819548
2770 35.723576
2770.5 35.934561
2771 35.637134
2771.5 36.067563
2772 35.826585
2772.5 36.232069
2773 35.89105
2773.5 36.098656
2774 36.101085
2774.5 36.152431
2775 36.195257
2775.5 35.836259
2776 36.223921
2776.5 36.149588
2777 36.408949
2777.5 36.282596
2778 36.380616
2778.5 36.441371
2779 36.336103
2779.5 36.478654
2780 36.310333
2780.5 36.449614
2781 36.236054
2781.5 36.407086
2782 36.133
2782.5 36.20111
2783 36.132091
2783.5 36.206892
2784 36.146304
2784.5 36.100921
2785 36.222076
2785.5 36.231142
2786 36.245394
2786.5 35.876432
2787 36.314079
2787.5 35.919544
2788 36.049387
2788.5 35.952455
2789 36.100298
2789.5 36.134017
2790 36.130291
2790.5 36.407301
2791 36.010227
2791.5 36.326098
2792 36.138296
2792.5 36.334205
2793 35.989803
2793.5 36.153406
2794 36.149365
2794.5 36.383244
2795 36.409283
2795.5 36.436623
2796 36.671269
2796.5 36.460692
2797 36.720291
2797.5 36.47202
2798 36.786848
2798.5 36.567572
2799 36.722189
2799.5 36.978266
2800 37.284219
##END=
